File: reader/backup_20210330/Batterieverzeichnis_new/001018.txt
Serialnumber ; Date ; Time ; Action ; Date of Manufacture ; Manufacturer ; Battery Name ; Device-Chemistry ; Specification-Info ; Design-Capacity [mAh] ; Design-Voltage [mV] ; Battery Status ; Cycle Count ; SOC [%] ; Relativ SOC[%] ; Desired Voltage [mV]; Desired Current [mA]; Cell Voltage 1 [mV] ; Cell Voltage 2 [mV] ; Max_Error [%] ; Busvoltage[mV] ; Battery Temperature [°C] ; Charger Temperature [°C] ; Batterysystem ; Case ; PLace
001018;10.12.2019;15:29:15;Charge to 30% ;28.11.2017;FEY;;LION;49;14500;7200;224;35;90;99;8400;;4121;4119;1;13023;22.24;24.14;27,1;BCS1388054;7;12
001018;10.12.2019;20:46:56;Stop          ;28.11.2017;FEY;;LION;49;14500;7200;192;36;28;30;8400;3000;3558;3556;1;13022;30.24;30.24;33,5;BCS1388054;7;12
001018;11.12.2019;08:49:12;Fastcharge    ;28.11.2017;FEY;;LION;49;14500;7200;192;36;28;30;8400;3000;3564;3562;1;13023;25.44;27.04;31,9;BCS1388054;7;12
001018;11.12.2019;13:38:42;Stop          ;28.11.2017;FEY;;LION;49;14500;7200;224;36;92;100;8400;;4160;4160;1;13022;27.54;28.34;32,7;BCS1388054;7;12
001018;11.12.2019;15:46:56;Charge to 10% ;28.11.2017;FEY;;LION;49;14500;7200;224;36;93;100;8400;;4153;4153;1;13023;25.94;26.94;31,2;BCS1388054;7;12
001018;11.12.2019;22:51:50;Stop          ;28.11.2017;FEY;;LION;49;14500;7200;192;37;10;10;8400;3000;3359;3358;1;13022;30.34;30.04;33,0;BCS1388054;7;12
001018;12.12.2019;08:45:27;Normalcharge  ;28.11.2017;FEY;;LION;49;14500;7200;192;37;9;10;8400;3000;3366;3364;1;13023;25.64;26.84;31,7;BCS1388054;7;12
001018;12.12.2019;16:41:08;Stop          ;28.11.2017;FEY;;LION;49;14500;7200;224;37;93;100;8400;;4157;4157;1;13022;27.24;27.74;31,6;BCS1388054;7;12
001018;13.12.2019;10:48:13;Charge to 10% ;28.11.2017;FEY;;LION;49;14500;7200;224;37;93;100;8400;;4148;4148;1;13023;25.64;27.24;32,0;BCS1388054;7;12
001018;13.12.2019;13:48:48;Stop          ;28.11.2017;FEY;;LION;49;14500;7200;192;38;55;60;8400;3000;3663;3715;1;13535;31.84;34.84;36,8;BCS1388054;7;12
001018;16.12.2019;07:43:34;Charge to 10% ;28.11.2017;FEY;;LION;49;14500;7200;192;38;56;61;8400;3000;3764;3767;1;13039;22.44;26.44;31,7;BCS1388054;7;14
001018;16.12.2019;11:52:34;Stop          ;28.11.2017;FEY;;LION;49;14500;7200;192;38;10;10;8400;3000;3359;3358;1;13038;32.14;32.04;34,7;BCS1388054;7;14
001018;16.12.2019;14:44:25;Charge to 90% ;28.11.2017;FEY;;LION;49;14500;7200;192;38;9;10;8400;3000;3363;3362;1;13038;28.54;29.24;31,7;BCS1388054;7;14
001018;16.12.2019;20:53:59;Stop          ;28.11.2017;FEY;;LION;49;14500;7200;192;38;82;90;8400;3000;4033;4034;1;13037;31.04;30.44;32,1;BCS1388054;7;14
001018;17.12.2019;08:38:02;Fastcharge    ;28.11.2017;FEY;;LION;49;14500;7200;192;38;81;89;8400;3000;4027;4028;1;13037;25.74;27.34;31,6;BCS1388054;7;14
001018;17.12.2019;10:36:25;Stop          ;28.11.2017;FEY;;LION;49;14500;7200;224;38;92;100;8400;;4160;4162;1;13037;27.74;28.94;31,5;BCS1388054;7;14
001018;17.12.2019;13:38:44;Charge to 10% ;28.11.2017;FEY;;LION;49;14500;7200;224;38;92;100;8400;;4151;4153;1;13038;26.14;27.44;30,8;BCS1388054;7;14
001018;17.12.2019;20:42:03;Stop          ;28.11.2017;FEY;;LION;49;14500;7200;192;39;10;10;8400;3000;3361;3361;1;13038;33.14;31.84;32,6;BCS1388054;7;14
001018;18.12.2019;08:31:43;Fastcharge    ;28.11.2017;FEY;;LION;49;14500;7200;192;39;9;10;8400;3000;3368;3368;1;13037;25.84;27.54;31,6;BCS1388054;7;14
001018;18.12.2019;14:30:48;Stop          ;28.11.2017;FEY;;LION;49;14500;7200;224;39;92;100;8400;;4160;4164;1;13037;29.94;29.44;31,6;BCS1388054;7;14
001018;19.12.2019;08:24:17;Charge to 60% ;28.11.2017;FEY;;LION;49;14500;7200;224;39;93;100;8400;;4150;4153;1;13037;25.84;27.34;31,6;BCS1388054;7;14
001018;19.12.2019;11:28:26;Stop          ;28.11.2017;FEY;;LION;49;14500;7200;192;40;56;60;8400;3000;3766;3771;1;13036;33.34;34.34;35,1;BCS1388054;7;14
001018;19.12.2019;12:16:57;Cycle         ;28.11.2017;FEY;;LION;49;14500;7200;192;40;56;60;8400;3000;3774;3780;1;13037;30.14;29.44;32,7;BCS1388054;7;14
001018;20.12.2019;17:22:28;Stop          ;28.11.2017;FEY;;LION;49;14500;7200;224;41;92;100;8400;;4152;4152;1;13037;26.24;27.64;31,9;BCS1388054;7;14
001018;06.01.2020;06:35:02;Charge to 60% ;28.11.2017;FEY;;LION;49;14500;7200;192;41;90;98;8400;;4122;4122;1;13039;25.84;27.54;31,9;BCS1388054;7;14
001018;06.01.2020;09:29:52;Stop          ;28.11.2017;FEY;;LION;49;14500;7200;192;42;55;60;8400;3000;3762;3765;1;13038;32.54;33.44;34,0;BCS1388054;7;14
001018;06.01.2020;09:50:50;Fastcharge    ;28.11.2017;FEY;;LION;49;14500;7200;192;42;55;60;8400;3000;3768;3771;1;13038;31.14;30.04;32,7;BCS1388054;7;14
001018;06.01.2020;13:05:11;Stop          ;28.11.2017;FEY;;LION;49;14500;7200;224;42;92;100;8400;;4159;4159;1;13038;29.44;29.64;32,4;BCS1388054;7;14