File: reader/backup_20210330/Batterieverzeichnis_new/009536.txt
Serialnumber ; Date ; Time ; Action ; Date of Manufacture ; Manufacturer ; Battery Name ; Device-Chemistry ; Specification-Info ; Design-Capacity [mAh] ; Design-Voltage [mV] ; Battery Status ; Cycle Count ; SOC [%] ; Relativ SOC[%] ; Desired Voltage [mV]; Desired Current [mA]; Cell Voltage 1 [mV] ; Cell Voltage 2 [mV] ; Max_Error [%] ; Busvoltage[mV] ; Battery Temperature [°C] ; Charger Temperature [°C] ; Batterysystem ; Case ; PLace
009536;07.12.2020;04:14:40;Cycle         ;04.12.2018;FEY;;LION;49;14500;7200;192;1;96;96;8400;;4100;4099;1;13017;25.94;27.54;30,3;BCS1388054;7;7
009536;08.12.2020;16:20:20;Stop          ;04.12.2018;FEY;;LION;49;14500;7200;192;1;97;96;8400;;4099;4098;1;13016;27.94;28.94;31,9;BCS1388054;7;7
009536;12.01.2021;04:17:36;Charge to 90% ;04.12.2018;FEY;;LION;49;14500;7200;192;1;78;78;8400;3000;3916;3916;1;13016;23.34;23.64;23,6;BCS1388054;5;8
009536;12.01.2021;05:15:37;Stop          ;04.12.2018;FEY;;LION;49;14500;7200;128;1;90;90;8400;3000;4141;4093;1;13011;28.44;32.74;31,6;BCS1388054;5;8
009536;12.01.2021;05:21:53;Cycle         ;04.12.2018;FEY;;LION;49;14500;7200;192;1;90;90;8400;3000;4045;4045;1;13011;28.34;28.44;30,6;BCS1388054;5;8
009536;13.01.2021;08:31:10;Stop          ;04.12.2018;FEY;;LION;49;14500;7200;224;3;98;100;8400;;4157;4157;1;13012;27.54;28.34;31,1;BCS1388054;5;8
009536;22.02.2021;17:31:46;Normalcharge  ;04.12.2018;FEY;;LION;49;14500;7200;192;3;62;64;8400;3000;3791;3791;1;12991;25.94;26.14;31,6;BCS1388054;1;5
009536;22.02.2021;23:06:28;Stop          ;04.12.2018;FEY;;LION;49;14500;7200;224;3;99;100;8400;;4156;4155;1;12993;26.64;26.54;30,6;BCS1388054;1;5
009536;22.02.2021;17:31:46;Normalcharge  ;04.12.2018;FEY;;LION;49;14500;7200;192;3;62;64;8400;3000;3791;3791;1;12991;25.94;26.14;31,6;BCS1388054;1;5
009536;22.02.2021;23:06:28;Stop          ;04.12.2018;FEY;;LION;49;14500;7200;224;3;99;100;8400;;4156;4155;1;12993;26.64;26.54;30,6;BCS1388054;1;14