File: reader/backup_20210330/Batterieverzeichnis_new/009644.txt
Serialnumber ; Date ; Time ; Action ; Date of Manufacture ; Manufacturer ; Battery Name ; Device-Chemistry ; Specification-Info ; Design-Capacity [mAh] ; Design-Voltage [mV] ; Battery Status ; Cycle Count ; SOC [%] ; Relativ SOC[%] ; Desired Voltage [mV]; Desired Current [mA]; Cell Voltage 1 [mV] ; Cell Voltage 2 [mV] ; Max_Error [%] ; Busvoltage[mV] ; Battery Temperature [°C] ; Charger Temperature [°C] ; Batterysystem ; Case ; PLace
009644;10.12.2019;15:28:40;Charge to 30% ;03.12.2018;FEY;;LION;49;14500;7200;224;54;93;100;8400;;4132;4131;1;13009;22.54;25.54;27,1;BCS1388054;2;10
009644;10.12.2019;20:48:37;Stop          ;03.12.2018;FEY;;LION;49;14500;7200;192;55;29;30;8400;3000;3560;3559;1;13007;33.24;34.04;33,2;BCS1388054;2;10
009644;11.12.2019;08:48:24;Fastcharge    ;03.12.2018;FEY;;LION;49;14500;7200;192;55;29;30;8400;3000;3568;3567;1;13008;25.94;28.54;31,9;BCS1388054;2;10
009644;11.12.2019;13:39:47;Stop          ;03.12.2018;FEY;;LION;49;14500;7200;224;55;94;100;8400;;4161;4161;1;13008;30.14;31.04;32,5;BCS1388054;2;10
009644;11.12.2019;15:46:18;Charge to 10% ;03.12.2018;FEY;;LION;49;14500;7200;224;55;96;100;8400;;4153;4153;1;13008;26.84;29.04;31,4;BCS1388054;2;10
009644;11.12.2019;22:49:04;Stop          ;03.12.2018;FEY;;LION;49;14500;7200;192;56;10;10;8400;3000;3354;3353;1;13006;34.24;34.64;33,6;BCS1388054;2;10
009644;12.12.2019;08:44:52;Normalcharge  ;03.12.2018;FEY;;LION;49;14500;7200;192;56;9;10;8400;3000;3364;3363;1;13009;26.04;28.84;31,9;BCS1388054;2;10
009644;12.12.2019;16:40:06;Stop          ;03.12.2018;FEY;;LION;49;14500;7200;224;56;95;100;8400;;4160;4161;1;13008;29.14;30.54;31,7;BCS1388054;2;10
009644;13.12.2019;10:47:50;Charge to 10% ;03.12.2018;FEY;;LION;49;14500;7200;224;56;95;100;8400;;4148;4148;1;13008;26.14;28.84;32,0;BCS1388054;2;10
009644;13.12.2019;15:42:08;Cycle         ;03.12.2018;FEY;;LION;49;14500;7200;192;56;34;36;8400;3000;3502;3552;1;13575;32.94;39.04;34,6;BCS1388054;2;10
009644;13.12.2019;15:42:08;Stop          ;03.12.2018;FEY;;LION;49;14500;7200;192;56;34;36;8400;3000;3502;3552;1;13575;32.94;39.04;34,6;BCS1388054;2;10
009644;14.12.2019;22:48:51;Stop          ;03.12.2018;FEY;;LION;49;14500;7200;224;58;93;99;8400;;4151;4150;1;13008;26.24;28.74;32,0;BCS1388054;2;10
009644;16.12.2019;07:43:06;Charge to 10% ;03.12.2018;FEY;;LION;49;14500;7200;224;58;93;100;8400;;4145;4144;1;13009;25.84;28.14;31,9;BCS1388054;2;10
009644;16.12.2019;14:37:54;Stop          ;03.12.2018;FEY;;LION;49;14500;7200;192;59;10;10;8400;3000;3366;3365;1;13007;32.74;32.84;32,4;BCS1388054;2;10
009644;16.12.2019;14:44:03;Charge to 90% ;03.12.2018;FEY;;LION;49;14500;7200;192;59;10;10;8400;3000;3368;3366;1;13009;32.24;32.14;31,9;BCS1388054;2;10
009644;16.12.2019;20:51:09;Stop          ;03.12.2018;FEY;;LION;49;14500;7200;192;59;84;90;8400;3000;4057;4058;1;13010;31.64;31.94;31,6;BCS1388054;2;10
009644;17.12.2019;08:37:40;Fastcharge    ;03.12.2018;FEY;;LION;49;14500;7200;192;59;84;90;8400;3000;4048;4048;1;13009;25.94;28.54;31,6;BCS1388054;2;10
009644;17.12.2019;10:30:36;Stop          ;03.12.2018;FEY;;LION;49;14500;7200;224;59;95;100;8400;;4161;4162;1;13009;27.64;30.14;31,5;BCS1388054;2;10
009644;17.12.2019;13:38:22;Charge to 10% ;03.12.2018;FEY;;LION;49;14500;7200;224;59;95;100;8400;;4149;4150;1;13008;26.24;28.64;30,8;BCS1388054;2;10
009644;17.12.2019;20:36:00;Stop          ;03.12.2018;FEY;;LION;49;14500;7200;192;60;10;10;8400;3000;3364;3364;1;13007;34.04;34.14;33,6;BCS1388054;2;10
009644;18.12.2019;08:31:17;Fastcharge    ;03.12.2018;FEY;;LION;49;14500;7200;192;60;10;10;8400;3000;3373;3373;1;13010;26.04;28.74;31,6;BCS1388054;2;10
009644;18.12.2019;14:28:27;Stop          ;03.12.2018;FEY;;LION;49;14500;7200;224;60;95;100;8400;;4160;4161;1;13009;30.14;30.94;32,0;BCS1388054;2;10
009644;19.12.2019;08:23:50;Charge to 60% ;03.12.2018;FEY;;LION;49;14500;7200;224;60;95;100;8400;;4149;4149;1;13008;25.94;28.54;31,5;BCS1388054;2;10
009644;19.12.2019;11:32:11;Stop          ;03.12.2018;FEY;;LION;49;14500;7200;192;61;58;60;8400;3000;3774;3772;1;13007;33.74;34.64;34,0;BCS1388054;2;10
009644;19.12.2019;12:16:37;Cycle         ;03.12.2018;FEY;;LION;49;14500;7200;192;61;58;60;8400;3000;3782;3782;1;13008;30.54;31.04;32,7;BCS1388054;2;10
009644;20.12.2019;17:35:47;Stop          ;03.12.2018;FEY;;LION;49;14500;7200;224;62;93;100;8400;;4152;4152;1;13010;26.24;28.54;31,1;BCS1388054;2;10
009644;06.01.2020;06:34:42;Charge to 60% ;03.12.2018;FEY;;LION;49;14500;7200;224;62;92;99;8400;;4123;4123;1;13010;25.94;28.64;31,9;BCS1388054;2;10
009644;06.01.2020;09:32:11;Stop          ;03.12.2018;FEY;;LION;49;14500;7200;192;62;57;60;8400;3000;3774;3772;1;13009;32.94;34.04;33,2;BCS1388054;2;10
009644;06.01.2020;09:50:30;Fastcharge    ;03.12.2018;FEY;;LION;49;14500;7200;192;62;57;60;8400;3000;3782;3780;1;13010;31.64;31.74;32,7;BCS1388054;2;10
009644;06.01.2020;13:08:34;Stop          ;03.12.2018;FEY;;LION;49;14500;7200;224;62;94;100;8400;;4159;4159;1;13011;29.54;30.54;31,6;BCS1388054;2;10