File: reader/backup_20210330/Batterieverzeichnis_new/009664.txt
Serialnumber ; Date ; Time ; Action ; Date of Manufacture ; Manufacturer ; Battery Name ; Device-Chemistry ; Specification-Info ; Design-Capacity [mAh] ; Design-Voltage [mV] ; Battery Status ; Cycle Count ; SOC [%] ; Relativ SOC[%] ; Desired Voltage [mV]; Desired Current [mA]; Cell Voltage 1 [mV] ; Cell Voltage 2 [mV] ; Max_Error [%] ; Busvoltage[mV] ; Battery Temperature [°C] ; Charger Temperature [°C] ; Batterysystem ; Case ; PLace
009664;10.12.2019;15:29:01;Charge to 30% ;03.12.2018;FEY;;LION;49;14500;7200;224;48;93;100;8400;;4130;4129;1;13015;22.34;24.34;27,1;BCS1388054;5;11
009664;10.12.2019;20:48:54;Stop          ;03.12.2018;FEY;;LION;49;14500;7200;192;49;29;30;8400;3000;3561;3561;1;13011;32.74;32.04;33,1;BCS1388054;5;11
009664;11.12.2019;08:48:53;Fastcharge    ;03.12.2018;FEY;;LION;49;14500;7200;192;49;29;30;8400;3000;3569;3568;1;13012;26.24;27.64;31,9;BCS1388054;5;11
009664;11.12.2019;13:40:11;Stop          ;03.12.2018;FEY;;LION;49;14500;7200;224;49;94;100;8400;;4161;4162;1;13012;29.54;29.64;32,4;BCS1388054;5;11
009664;11.12.2019;15:46:40;Charge to 10% ;03.12.2018;FEY;;LION;49;14500;7200;224;49;96;100;8400;;4153;4153;1;13012;26.94;27.74;31,4;BCS1388054;5;11
009664;11.12.2019;22:49:07;Stop          ;03.12.2018;FEY;;LION;49;14500;7200;192;50;10;10;8400;3000;3352;3352;1;13010;33.54;32.74;33,5;BCS1388054;5;11
009664;12.12.2019;08:45:10;Normalcharge  ;03.12.2018;FEY;;LION;49;14500;7200;192;50;9;10;8400;3000;3363;3363;1;13012;26.34;27.64;31,7;BCS1388054;5;11
009664;12.12.2019;16:41:20;Stop          ;03.12.2018;FEY;;LION;49;14500;7200;224;50;96;100;8400;;4161;4161;1;13012;28.74;29.04;31,6;BCS1388054;5;11
009664;13.12.2019;10:48:05;Charge to 10% ;03.12.2018;FEY;;LION;49;14500;7200;224;50;95;100;8400;;4149;4148;1;13011;26.34;27.84;32,0;BCS1388054;5;11
009664;13.12.2019;15:40:55;Stop          ;03.12.2018;FEY;;LION;49;14500;7200;192;51;35;36;8400;3000;3503;3553;1;13528;32.14;35.94;34,6;BCS1388054;5;11
009664;13.12.2019;15:41:42;Cycle         ;03.12.2018;FEY;;LION;49;14500;7200;192;51;35;36;8400;3000;3584;3584;1;13009;32.14;33.74;34,5;BCS1388054;5;11
009664;14.12.2019;22:39:35;Stop          ;03.12.2018;FEY;;LION;49;14500;7200;224;52;93;99;8400;;4151;4151;1;13012;26.34;27.54;31,7;BCS1388054;5;11
009664;16.12.2019;07:43:20;Charge to 10% ;03.12.2018;FEY;;LION;49;14500;7200;224;52;93;100;8400;;4146;4145;1;13013;26.14;26.74;31,9;BCS1388054;5;11
009664;16.12.2019;14:34:29;Stop          ;03.12.2018;FEY;;LION;49;14500;7200;192;54;10;10;8400;3000;3366;3367;1;13010;31.84;31.14;32,5;BCS1388054;5;11
009664;16.12.2019;14:44:17;Charge to 90% ;03.12.2018;FEY;;LION;49;14500;7200;192;54;10;10;8400;3000;3369;3369;1;13012;31.04;29.94;31,9;BCS1388054;5;11
009664;16.12.2019;20:48:55;Stop          ;03.12.2018;FEY;;LION;49;14500;7200;192;54;84;90;8400;3000;4059;4059;1;13011;31.14;30.64;31,9;BCS1388054;5;11
009664;17.12.2019;08:37:53;Fastcharge    ;03.12.2018;FEY;;LION;49;14500;7200;192;54;84;90;8400;3000;4048;4048;1;13012;26.24;27.54;31,6;BCS1388054;5;11
009664;17.12.2019;10:33:46;Stop          ;03.12.2018;FEY;;LION;49;14500;7200;224;54;94;100;8400;;4159;4158;1;13012;27.74;28.34;31,1;BCS1388054;5;11
009664;17.12.2019;10:33:46;Stop          ;03.12.2018;FEY;;LION;49;14500;7200;224;54;94;100;8400;;4159;4158;1;13012;27.74;28.34;31,1;BCS1388054;5;11
009664;17.12.2019;13:38:36;Charge to 10% ;03.12.2018;FEY;;LION;49;14500;7200;224;54;94;100;8400;;4150;4149;1;13012;26.54;27.54;30,8;BCS1388054;5;11
009664;17.12.2019;20:33:18;Stop          ;03.12.2018;FEY;;LION;49;14500;7200;192;55;10;10;8400;3000;3367;3367;1;13011;33.44;32.74;34,5;BCS1388054;5;11
009664;18.12.2019;08:31:30;Fastcharge    ;03.12.2018;FEY;;LION;49;14500;7200;192;55;10;11;8400;3000;3376;3376;1;13012;26.34;27.54;31,6;BCS1388054;5;11
009664;18.12.2019;14:29:27;Stop          ;03.12.2018;FEY;;LION;49;14500;7200;224;55;94;100;8400;;4159;4158;1;13012;29.44;29.44;31,7;BCS1388054;5;11
009664;19.12.2019;08:24:02;Charge to 60% ;03.12.2018;FEY;;LION;49;14500;7200;224;55;95;100;8400;;4149;4148;1;13012;26.24;27.64;31,5;BCS1388054;5;11
009664;19.12.2019;11:31:09;Stop          ;03.12.2018;FEY;;LION;49;14500;7200;192;55;57;60;8400;3000;3771;3771;1;13011;33.34;33.04;34,4;BCS1388054;5;11
009664;19.12.2019;12:16:49;Cycle         ;03.12.2018;FEY;;LION;49;14500;7200;192;55;57;60;8400;3000;3780;3781;1;13012;29.84;29.74;32,7;BCS1388054;5;11
009664;20.12.2019;17:27:50;Stop          ;03.12.2018;FEY;;LION;49;14500;7200;224;56;93;100;8400;;4152;4151;1;13014;26.64;27.34;31,0;BCS1388054;5;11
009664;06.01.2020;06:34:55;Charge to 60% ;03.12.2018;FEY;;LION;49;14500;7200;224;56;92;99;8400;;4122;4122;1;13013;26.54;27.74;31,9;BCS1388054;5;11
009664;06.01.2020;09:30:26;Stop          ;03.12.2018;FEY;;LION;49;14500;7200;192;57;57;60;8400;3000;3768;3768;1;13011;32.64;32.54;33,9;BCS1388054;5;11
009664;06.01.2020;09:50:42;Fastcharge    ;03.12.2018;FEY;;LION;49;14500;7200;192;57;57;60;8400;3000;3778;3779;1;13012;30.94;30.44;32,7;BCS1388054;5;11
009664;06.01.2020;13:09:56;Stop          ;03.12.2018;FEY;;LION;49;14500;7200;224;57;94;100;8400;;4158;4158;1;13013;28.94;28.84;31,4;BCS1388054;5;11