File: reader/backup_20210330/Batterieverzeichnis_new/009609.txt
Serialnumber ; Date ; Time ; Action ; Date of Manufacture ; Manufacturer ; Battery Name ; Device-Chemistry ; Specification-Info ; Design-Capacity [mAh] ; Design-Voltage [mV] ; Battery Status ; Cycle Count ; SOC [%] ; Relativ SOC[%] ; Desired Voltage [mV]; Desired Current [mA]; Cell Voltage 1 [mV] ; Cell Voltage 2 [mV] ; Max_Error [%] ; Busvoltage[mV] ; Battery Temperature [°C] ; Charger Temperature [°C] ; Batterysystem ; Case ; PLace
009609;10.12.2019;15:28:54;Charge to 30% ;04.12.2018;FEY;;LION;49;14500;7200;224;52;92;100;8400;;4127;4128;1;13013;22.64;24.34;27,1;BCS1388054;4;15
009609;10.12.2019;20:47:57;Stop          ;04.12.2018;FEY;;LION;49;14500;7200;192;53;28;30;8400;3000;3560;3560;1;13012;34.14;34.84;33,4;BCS1388054;4;15
009609;11.12.2019;08:48:41;Fastcharge    ;04.12.2018;FEY;;LION;49;14500;7200;192;53;28;30;8400;3000;3568;3568;1;13011;26.54;28.34;31,9;BCS1388054;4;15
009609;11.12.2019;13:42:44;Stop          ;04.12.2018;FEY;;LION;49;14500;7200;224;53;94;100;8400;;4159;4160;1;13012;30.64;30.84;31,9;BCS1388054;4;15
009609;11.12.2019;15:46:31;Charge to 10% ;04.12.2018;FEY;;LION;49;14500;7200;224;53;95;100;8400;;4152;4152;1;13010;27.44;28.64;31,4;BCS1388054;4;15
009609;11.12.2019;22:50:44;Stop          ;04.12.2018;FEY;;LION;49;14500;7200;192;54;10;10;8400;3000;3355;3355;1;13011;34.84;34.64;33,2;BCS1388054;4;15
009609;12.12.2019;08:45:03;Normalcharge  ;04.12.2018;FEY;;LION;49;14500;7200;192;54;9;9;8400;3000;3363;3364;1;13011;26.64;28.44;31,9;BCS1388054;4;15
009609;12.12.2019;16:41:48;Stop          ;04.12.2018;FEY;;LION;49;14500;7200;224;54;94;100;8400;;4159;4159;1;13012;29.64;30.34;31,5;BCS1388054;4;15
009609;13.12.2019;10:48:01;Charge to 10% ;04.12.2018;FEY;;LION;49;14500;7200;224;54;95;100;8400;;4148;4148;1;13011;26.74;28.44;32,0;BCS1388054;4;15
009609;13.12.2019;15:42:25;Stop          ;04.12.2018;FEY;;LION;49;14500;7200;192;55;34;36;8400;3000;3497;3549;1;13513;33.44;40.54;34,6;BCS1388054;4;15
009609;13.12.2019;15:42:27;Cycle         ;04.12.2018;FEY;;LION;49;14500;7200;192;55;34;36;8400;3000;3497;3549;1;13513;33.44;40.54;34,6;BCS1388054;4;15
009609;14.12.2019;22:44:28;Stop          ;04.12.2018;FEY;;LION;49;14500;7200;224;56;92;99;8400;;4150;4151;1;13011;26.84;28.44;32,0;BCS1388054;4;15
009609;16.12.2019;07:43:14;Charge to 10% ;04.12.2018;FEY;;LION;49;14500;7200;224;56;93;100;8400;;4144;4145;1;13012;26.54;28.04;31,9;BCS1388054;4;15
009609;16.12.2019;14:36:44;Stop          ;04.12.2018;FEY;;LION;49;14500;7200;192;57;10;10;8400;3000;3366;3367;1;13013;33.14;33.34;32,4;BCS1388054;4;15
009609;16.12.2019;14:44:13;Charge to 90% ;04.12.2018;FEY;;LION;49;14500;7200;192;57;10;10;8400;3000;3367;3368;1;13012;32.54;31.64;31,7;BCS1388054;4;15
009609;16.12.2019;20:50:28;Stop          ;04.12.2018;FEY;;LION;49;14500;7200;192;57;84;90;8400;3000;4054;4054;1;13013;32.34;32.64;31,6;BCS1388054;4;15
009609;17.12.2019;08:37:50;Fastcharge    ;04.12.2018;FEY;;LION;49;14500;7200;192;57;84;90;8400;3000;4046;4046;1;13011;26.54;28.24;31,6;BCS1388054;4;15
009609;17.12.2019;10:31:07;Stop          ;04.12.2018;FEY;;LION;49;14500;7200;224;57;94;100;8400;;4161;4161;1;13011;28.54;30.34;31,4;BCS1388054;4;15
009609;17.12.2019;13:38:32;Charge to 10% ;04.12.2018;FEY;;LION;49;14500;7200;224;57;94;100;8400;;4149;4148;1;13012;26.84;28.24;30,8;BCS1388054;4;15
009609;17.12.2019;20:34:29;Stop          ;04.12.2018;FEY;;LION;49;14500;7200;192;58;10;10;8400;3000;3366;3366;1;13012;34.84;34.84;34,1;BCS1388054;4;15
009609;18.12.2019;08:31:26;Fastcharge    ;04.12.2018;FEY;;LION;49;14500;7200;192;58;10;10;8400;3000;3374;3374;1;13011;26.64;28.34;31,6;BCS1388054;4;15
009609;18.12.2019;14:29:12;Stop          ;04.12.2018;FEY;;LION;49;14500;7200;224;58;94;100;8400;;4159;4158;1;13012;30.74;30.94;31,9;BCS1388054;4;15
009609;19.12.2019;08:23:58;Charge to 60% ;04.12.2018;FEY;;LION;49;14500;7200;224;58;94;100;8400;;4148;4147;1;13012;26.54;28.24;31,6;BCS1388054;4;15
009609;19.12.2019;11:30:18;Stop          ;04.12.2018;FEY;;LION;49;14500;7200;192;58;57;60;8400;3000;3768;3766;1;13012;34.64;36.14;34,6;BCS1388054;4;15
009609;19.12.2019;12:16:45;Cycle         ;04.12.2018;FEY;;LION;49;14500;7200;192;58;57;60;8400;3000;3776;3775;1;13012;31.14;30.94;32,7;BCS1388054;4;15
009609;20.12.2019;17:30:48;Stop          ;04.12.2018;FEY;;LION;49;14500;7200;224;59;93;100;8400;;4151;4150;1;13013;27.04;28.24;30,6;BCS1388054;4;15
009609;06.01.2020;06:34:50;Charge to 60% ;04.12.2018;FEY;;LION;49;14500;7200;224;59;92;99;8400;;4122;4121;1;13012;26.84;28.44;31,9;BCS1388054;4;15
009609;06.01.2020;09:30:33;Stop          ;04.12.2018;FEY;;LION;49;14500;7200;192;59;56;60;8400;3000;3774;3773;1;13012;33.74;34.94;33,7;BCS1388054;4;15
009609;06.01.2020;09:50:38;Fastcharge    ;04.12.2018;FEY;;LION;49;14500;7200;192;59;56;60;8400;3000;3780;3780;1;13013;32.24;31.64;32,7;BCS1388054;4;15
009609;06.01.2020;13:09:19;Stop          ;04.12.2018;FEY;;LION;49;14500;7200;224;59;93;100;8400;;4157;4156;1;13013;30.24;30.44;31,4;BCS1388054;4;15