File: reader/backup_20210330/Batterieverzeichnis_new/009604.txt
Serialnumber ; Date ; Time ; Action ; Date of Manufacture ; Manufacturer ; Battery Name ; Device-Chemistry ; Specification-Info ; Design-Capacity [mAh] ; Design-Voltage [mV] ; Battery Status ; Cycle Count ; SOC [%] ; Relativ SOC[%] ; Desired Voltage [mV]; Desired Current [mA]; Cell Voltage 1 [mV] ; Cell Voltage 2 [mV] ; Max_Error [%] ; Busvoltage[mV] ; Battery Temperature [°C] ; Charger Temperature [°C] ; Batterysystem ; Case ; PLace
009604;10.12.2019;15:28:33;Charge to 30% ;04.12.2018;FEY;;LION;49;14500;7200;192;48;91;98;8400;;4106;4107;1;13012;23.54;25.94;27,1;BCS1388054;1;7
009604;10.12.2019;20:42:16;Stop          ;04.12.2018;FEY;;LION;49;14500;7200;192;49;29;30;8400;3000;3562;3562;1;13011;32.64;33.44;34,1;BCS1388054;1;7
009604;11.12.2019;08:48:18;Fastcharge    ;04.12.2018;FEY;;LION;49;14500;7200;192;49;29;30;8400;3000;3568;3569;1;13012;26.24;27.84;31,9;BCS1388054;1;7
009604;11.12.2019;13:40:21;Stop          ;04.12.2018;FEY;;LION;49;14500;7200;224;49;94;100;8400;;4160;4160;1;13012;29.74;30.04;32,4;BCS1388054;1;7
009604;11.12.2019;15:45:57;Charge to 30% ;04.12.2018;FEY;;LION;49;14500;7200;224;49;95;99;8400;;4152;4153;1;13012;27.04;28.24;31,5;BCS1388054;1;7
009604;11.12.2019;15:46:00;Stop          ;04.12.2018;FEY;;LION;49;14500;7200;224;49;95;99;8400;;4152;4153;1;13013;27.04;28.14;31,5;BCS1388054;1;7
009604;11.12.2019;15:46:13;Charge to 10% ;04.12.2018;FEY;;LION;49;14500;7200;224;49;95;99;8400;;4152;4153;1;13013;27.04;28.24;31,5;BCS1388054;1;7
009604;11.12.2019;22:50:20;Stop          ;04.12.2018;FEY;;LION;49;14500;7200;192;50;10;10;8400;3000;3354;3354;1;13012;33.44;32.94;33,4;BCS1388054;1;7
009604;12.12.2019;08:44:40;Normalcharge  ;04.12.2018;FEY;;LION;49;14500;7200;192;50;9;10;8400;3000;3362;3363;1;13012;26.44;28.04;31,9;BCS1388054;1;7
009604;12.12.2019;16:39:22;Stop          ;04.12.2018;FEY;;LION;49;14500;7200;224;50;95;100;8400;;4160;4162;1;13012;28.94;29.64;31,7;BCS1388054;1;7
009604;13.12.2019;10:47:47;Charge to 10% ;04.12.2018;FEY;;LION;49;14500;7200;224;50;95;100;8400;;4148;4148;1;13013;26.44;28.14;32,0;BCS1388054;1;7
009604;13.12.2019;15:41:58;Stop          ;04.12.2018;FEY;;LION;49;14500;7200;192;51;34;36;8400;3000;3496;3548;1;13641;32.54;38.44;34,6;BCS1388054;1;7
009604;13.12.2019;15:42:01;Cycle         ;04.12.2018;FEY;;LION;49;14500;7200;192;51;34;36;8400;3000;3496;3548;1;13641;32.54;38.44;34,6;BCS1388054;1;7
009604;14.12.2019;22:41:25;Stop          ;04.12.2018;FEY;;LION;49;14500;7200;224;52;93;99;8400;;4151;4152;1;13013;26.54;28.04;31,9;BCS1388054;1;7
009604;16.12.2019;07:43:03;Charge to 10% ;04.12.2018;FEY;;LION;49;14500;7200;224;52;93;100;8400;;4145;4146;1;13012;26.24;27.54;31,9;BCS1388054;1;7
009604;16.12.2019;14:36:13;Stop          ;04.12.2018;FEY;;LION;49;14500;7200;192;53;10;10;8400;3000;3366;3367;1;13011;32.24;32.04;32,4;BCS1388054;1;7
009604;16.12.2019;14:44:00;Charge to 90% ;04.12.2018;FEY;;LION;49;14500;7200;192;53;10;10;8400;3000;3367;3368;1;13013;31.74;30.84;31,7;BCS1388054;1;7
009604;16.12.2019;20:50:03;Stop          ;04.12.2018;FEY;;LION;49;14500;7200;192;53;84;90;8400;3000;4053;4054;1;13014;31.34;31.24;31,7;BCS1388054;1;7
009604;17.12.2019;08:37:36;Fastcharge    ;04.12.2018;FEY;;LION;49;14500;7200;192;53;84;90;8400;3000;4044;4045;1;13013;26.24;27.84;31,6;BCS1388054;1;7
009604;17.12.2019;10:31:11;Stop          ;04.12.2018;FEY;;LION;49;14500;7200;224;53;94;100;8400;;4159;4159;1;13012;27.84;28.94;31,4;BCS1388054;1;7
009604;17.12.2019;13:38:19;Charge to 10% ;04.12.2018;FEY;;LION;49;14500;7200;224;53;94;100;8400;;4148;4148;1;13012;26.54;27.74;30,8;BCS1388054;1;7
009604;17.12.2019;20:33:50;Stop          ;04.12.2018;FEY;;LION;49;14500;7200;192;54;10;10;8400;3000;3364;3364;1;13012;33.44;33.14;34,2;BCS1388054;1;7
009604;18.12.2019;08:31:14;Fastcharge    ;04.12.2018;FEY;;LION;49;14500;7200;192;54;10;10;8400;3000;3372;3373;1;13013;26.34;27.84;31,6;BCS1388054;1;7
009604;18.12.2019;14:28:33;Stop          ;04.12.2018;FEY;;LION;49;14500;7200;224;54;94;100;8400;;4159;4158;1;13012;29.74;29.94;31,9;BCS1388054;1;7
009604;19.12.2019;08:23:45;Charge to 60% ;04.12.2018;FEY;;LION;49;14500;7200;224;54;95;100;8400;;4148;4146;1;13012;26.24;27.74;31,5;BCS1388054;1;7
009604;19.12.2019;11:29:32;Stop          ;04.12.2018;FEY;;LION;49;14500;7200;192;55;57;60;8400;3000;3768;3766;1;13011;33.24;34.44;34,9;BCS1388054;1;7
009604;19.12.2019;12:16:33;Cycle         ;04.12.2018;FEY;;LION;49;14500;7200;192;55;57;60;8400;3000;3777;3776;1;13013;30.04;29.74;32,7;BCS1388054;1;7
009604;20.12.2019;17:26:19;Stop          ;04.12.2018;FEY;;LION;49;14500;7200;224;56;93;100;8400;;4150;4152;1;13013;26.54;27.84;31,2;BCS1388054;1;7
009604;06.01.2020;06:34:38;Charge to 60% ;04.12.2018;FEY;;LION;49;14500;7200;224;56;92;99;8400;;4121;4122;1;13013;26.34;27.84;31,9;BCS1388054;1;7
009604;06.01.2020;09:30:29;Stop          ;04.12.2018;FEY;;LION;49;14500;7200;192;56;56;60;8400;3000;3769;3770;1;13012;32.44;33.24;33,9;BCS1388054;1;7
009604;06.01.2020;09:50:27;Fastcharge    ;04.12.2018;FEY;;LION;49;14500;7200;192;56;56;60;8400;3000;3776;3778;1;13014;31.04;30.34;32,6;BCS1388054;1;7
009604;06.01.2020;13:07:36;Stop          ;04.12.2018;FEY;;LION;49;14500;7200;224;56;93;100;8400;;4159;4160;1;13013;29.24;29.74;31,7;BCS1388054;1;7