File: reader/backup_20210330/Batterieverzeichnis_new/009688.txt
Serialnumber ; Date ; Time ; Action ; Date of Manufacture ; Manufacturer ; Battery Name ; Device-Chemistry ; Specification-Info ; Design-Capacity [mAh] ; Design-Voltage [mV] ; Battery Status ; Cycle Count ; SOC [%] ; Relativ SOC[%] ; Desired Voltage [mV]; Desired Current [mA]; Cell Voltage 1 [mV] ; Cell Voltage 2 [mV] ; Max_Error [%] ; Busvoltage[mV] ; Battery Temperature [°C] ; Charger Temperature [°C] ; Batterysystem ; Case ; PLace
009688;07.12.2020;04:14:36;Cycle         ;04.12.2018;FEY;;LION;49;14500;7200;192;2;99;98;8400;;4138;4141;1;13009;25.74;27.44;30,3;BCS1388054;6;11
009688;08.12.2020;16:20:13;Stop          ;04.12.2018;FEY;;LION;49;14500;7200;192;2;99;98;8400;;4135;4138;1;13011;27.74;28.84;31,9;BCS1388054;6;11
009688;12.01.2021;04:17:33;Charge to 90% ;04.12.2018;FEY;;LION;49;14500;7200;192;2;98;97;8400;;4122;4124;1;12998;23.14;23.44;23,6;BCS1388054;4;11
009688;12.01.2021;04:57:16;Stop          ;04.12.2018;FEY;;LION;49;14500;7200;192;2;91;90;8400;3000;4058;4060;1;12994;27.14;27.74;31,6;BCS1388054;4;11
009688;12.01.2021;05:21:49;Cycle         ;04.12.2018;FEY;;LION;49;14500;7200;192;2;91;90;8400;3000;4061;4063;1;12995;27.14;26.74;30,4;BCS1388054;4;11
009688;13.01.2021;08:19:19;Stop          ;04.12.2018;FEY;;LION;49;14500;7200;224;3;98;100;8400;;4156;4157;1;12995;27.14;27.04;30,7;BCS1388054;4;11
009688;03.03.2021;08:17:17;Normalcharge  ;04.12.2018;FEY;;LION;49;14500;7200;192;3;94;95;8400;3000;4092;4092;1;13009;23.24;24.34;23,5;BCS1388054;2;12
009688;04.03.2021;07:53:46;Stop          ;04.12.2018;FEY;;LION;49;14500;7200;224;3;99;100;8400;;4148;4149;1;12999;26.34;27.54;31,6;BCS1388054;2;12