File: reader/backup_20210330/Batterieverzeichnis_new/009610.txt
Serialnumber ; Date ; Time ; Action ; Date of Manufacture ; Manufacturer ; Battery Name ; Device-Chemistry ; Specification-Info ; Design-Capacity [mAh] ; Design-Voltage [mV] ; Battery Status ; Cycle Count ; SOC [%] ; Relativ SOC[%] ; Desired Voltage [mV]; Desired Current [mA]; Cell Voltage 1 [mV] ; Cell Voltage 2 [mV] ; Max_Error [%] ; Busvoltage[mV] ; Battery Temperature [°C] ; Charger Temperature [°C] ; Batterysystem ; Case ; PLace
009610;07.12.2020;04:14:25;Cycle          ;04.12.2018;FEY;;LION;49;14500;7200;192;2;98;98;8400;;4151;4151;1;13004;25.74;28.54;30,3;BCS1388054;3;13
009610;08.12.2020;16:19:50;Stop           ;04.12.2018;FEY;;LION;49;14500;7200;192;2;98;98;8400;;4149;4149;1;13003;27.94;30.34;31,9;BCS1388054;3;13
009610;12.01.2021;04:17:40;Charge to 90% ;04.12.2018;FEY;;LION;49;14500;7200;192;2;96;97;8400;;4134;4134;1;13019;23.14;24.34;23,6;BCS1388054;6;15
009610;12.01.2021;05:00:55;Stop          ;04.12.2018;FEY;;LION;49;14500;7200;192;2;90;90;8400;3000;4063;4063;1;13012;26.74;30.44;31,2;BCS1388054;6;15
009610;12.01.2021;05:21:57;Cycle         ;04.12.2018;FEY;;LION;49;14500;7200;192;2;90;90;8400;3000;4067;4067;1;13014;26.94;29.24;30,4;BCS1388054;6;15
009610;13.01.2021;08:31:18;Stop          ;04.12.2018;FEY;;LION;49;14500;7200;224;3;96;100;8400;;4156;4155;1;13015;27.04;29.24;31,1;BCS1388054;6;15
009610;21.02.2021;13:44:56;Normalcharge  ;04.12.2018;FEY;;LION;49;14500;7200;192;3;72;75;8400;3000;3900;3900;1;12996;23.04;22.74;27,7;BCS1388054;5;13
009610;21.02.2021;19:31:36;Stop          ;04.12.2018;FEY;;LION;49;14500;7200;224;3;97;100;8400;;4153;4153;1;12993;27.24;28.34;30,6;BCS1388054;5;13
009610;21.02.2021;13:44:56;Normalcharge  ;04.12.2018;FEY;;LION;49;14500;7200;192;3;72;75;8400;3000;3900;3900;1;12996;23.04;22.74;27,7;BCS1388054;5;13
009610;21.02.2021;19:31:36;Stop          ;04.12.2018;FEY;;LION;49;14500;7200;224;3;97;100;8400;;4153;4153;1;12993;27.24;28.34;30,6;BCS1388054;5;14