File: reader/backup_20210330/Batterieverzeichnis_new/009628.txt
Serialnumber ; Date ; Time ; Action ; Date of Manufacture ; Manufacturer ; Battery Name ; Device-Chemistry ; Specification-Info ; Design-Capacity [mAh] ; Design-Voltage [mV] ; Battery Status ; Cycle Count ; SOC [%] ; Relativ SOC[%] ; Desired Voltage [mV]; Desired Current [mA]; Cell Voltage 1 [mV] ; Cell Voltage 2 [mV] ; Max_Error [%] ; Busvoltage[mV] ; Battery Temperature [°C] ; Charger Temperature [°C] ; Batterysystem ; Case ; PLace
009628;10.12.2019;15:28:41;Charge to 30% ;03.12.2018;FEY;;LION;49;14500;7200;224;48;92;100;8400;;4133;4131;1;13002;22.54;24.24;27,1;BCS1388054;2;13
009628;10.12.2019;20:48:37;Stop          ;03.12.2018;FEY;;LION;49;14500;7200;192;49;28;30;8400;3000;3560;3560;1;13002;33.34;35.34;33,2;BCS1388054;2;13
009628;11.12.2019;08:48:24;Fastcharge    ;03.12.2018;FEY;;LION;49;14500;7200;192;49;28;30;8400;3000;3567;3568;1;13001;25.94;27.84;31,9;BCS1388054;2;13
009628;11.12.2019;13:39:47;Stop          ;03.12.2018;FEY;;LION;49;14500;7200;224;49;94;100;8400;;4163;4162;1;13000;30.24;31.54;32,5;BCS1388054;2;13
009628;11.12.2019;15:46:18;Charge to 10% ;03.12.2018;FEY;;LION;49;14500;7200;224;49;95;100;8400;;4154;4153;1;13000;26.84;28.54;31,4;BCS1388054;2;13
009628;11.12.2019;22:49:04;Stop          ;03.12.2018;FEY;;LION;49;14500;7200;192;50;10;10;8400;3000;3353;3354;1;13001;34.24;36.14;33,6;BCS1388054;2;13
009628;12.12.2019;08:44:52;Normalcharge  ;03.12.2018;FEY;;LION;49;14500;7200;192;50;9;9;8400;3000;3362;3364;1;12999;26.14;28.14;31,9;BCS1388054;2;13
009628;12.12.2019;16:40:06;Stop          ;03.12.2018;FEY;;LION;49;14500;7200;224;50;95;100;8400;;4160;4162;1;13001;29.24;30.84;31,7;BCS1388054;2;13
009628;13.12.2019;10:47:50;Charge to 10% ;03.12.2018;FEY;;LION;49;14500;7200;224;50;95;100;8400;;4148;4150;1;13000;26.14;28.14;32,0;BCS1388054;2;13
009628;13.12.2019;15:42:08;Cycle         ;03.12.2018;FEY;;LION;49;14500;7200;192;51;34;36;8400;3000;3498;3551;1;13561;33.04;42.04;34,6;BCS1388054;2;13
009628;13.12.2019;15:42:08;Stop          ;03.12.2018;FEY;;LION;49;14500;7200;192;51;34;36;8400;3000;3498;3551;1;13561;33.04;42.04;34,6;BCS1388054;2;13
009628;14.12.2019;22:48:51;Stop          ;03.12.2018;FEY;;LION;49;14500;7200;224;52;92;99;8400;;4152;4152;1;13001;26.34;28.14;32,0;BCS1388054;2;13
009628;16.12.2019;07:43:06;Charge to 10% ;03.12.2018;FEY;;LION;49;14500;7200;224;52;93;100;8400;;4146;4146;1;13001;25.84;27.64;31,9;BCS1388054;2;13
009628;16.12.2019;14:37:54;Stop          ;03.12.2018;FEY;;LION;49;14500;7200;192;53;10;10;8400;3000;3365;3367;1;13001;32.64;33.94;32,4;BCS1388054;2;13
009628;16.12.2019;14:44:03;Charge to 90% ;03.12.2018;FEY;;LION;49;14500;7200;192;53;10;10;8400;3000;3366;3368;1;13002;32.14;32.34;31,9;BCS1388054;2;13
009628;16.12.2019;20:51:09;Stop          ;03.12.2018;FEY;;LION;49;14500;7200;192;53;84;90;8400;3000;4055;4056;1;13003;31.74;33.04;31,6;BCS1388054;2;13
009628;17.12.2019;08:37:41;Fastcharge    ;03.12.2018;FEY;;LION;49;14500;7200;192;53;84;90;8400;3000;4047;4048;1;13000;25.94;27.84;31,6;BCS1388054;2;13
009628;17.12.2019;10:30:36;Stop          ;03.12.2018;FEY;;LION;49;14500;7200;224;53;94;100;8400;;4159;4160;1;13000;27.84;30.14;31,5;BCS1388054;2;13
009628;17.12.2019;13:38:22;Charge to 10% ;03.12.2018;FEY;;LION;49;14500;7200;224;53;94;100;8400;;4149;4149;1;13001;26.34;28.14;30,8;BCS1388054;2;13
009628;17.12.2019;20:36:00;Stop          ;03.12.2018;FEY;;LION;49;14500;7200;192;54;10;10;8400;3000;3365;3367;1;13000;33.94;35.14;33,6;BCS1388054;2;13
009628;18.12.2019;08:31:17;Fastcharge    ;03.12.2018;FEY;;LION;49;14500;7200;192;54;10;10;8400;3000;3373;3376;1;13002;26.04;28.04;31,6;BCS1388054;2;13
009628;18.12.2019;14:28:27;Stop          ;03.12.2018;FEY;;LION;49;14500;7200;224;54;94;100;8400;;4161;4159;1;13002;30.24;31.24;32,0;BCS1388054;2;13
009628;19.12.2019;08:23:50;Charge to 60% ;03.12.2018;FEY;;LION;49;14500;7200;224;54;94;100;8400;;4149;4148;1;13001;25.94;27.84;31,5;BCS1388054;2;13
009628;19.12.2019;11:32:11;Stop          ;03.12.2018;FEY;;LION;49;14500;7200;192;55;57;60;8400;3000;3772;3774;1;13001;33.84;35.94;34,0;BCS1388054;2;13
009628;19.12.2019;12:16:37;Cycle         ;03.12.2018;FEY;;LION;49;14500;7200;192;55;57;60;8400;3000;3780;3782;1;13001;30.54;30.84;32,7;BCS1388054;2;13
009628;20.12.2019;17:35:47;Stop          ;03.12.2018;FEY;;LION;49;14500;7200;224;56;93;100;8400;;4151;4153;1;13001;26.34;28.04;31,1;BCS1388054;2;13
009628;06.01.2020;06:34:42;Charge to 60% ;03.12.2018;FEY;;LION;49;14500;7200;192;56;92;98;8400;;4123;4124;1;13001;26.04;27.84;31,9;BCS1388054;2;13
009628;06.01.2020;09:32:11;Stop          ;03.12.2018;FEY;;LION;49;14500;7200;192;56;56;60;8400;3000;3777;3782;1;13003;32.94;35.04;33,2;BCS1388054;2;13
009628;06.01.2020;09:50:30;Fastcharge    ;03.12.2018;FEY;;LION;49;14500;7200;192;56;56;60;8400;3000;3783;3788;1;13003;31.64;31.54;32,7;BCS1388054;2;13
009628;06.01.2020;13:08:34;Stop          ;03.12.2018;FEY;;LION;49;14500;7200;224;56;94;100;8400;;4158;4160;1;13002;29.64;30.74;31,6;BCS1388054;2;13