File: reader/backup_20210330/Batterieverzeichnis_new/009607.txt
Serialnumber ; Date ; Time ; Action ; Date of Manufacture ; Manufacturer ; Battery Name ; Device-Chemistry ; Specification-Info ; Design-Capacity [mAh] ; Design-Voltage [mV] ; Battery Status ; Cycle Count ; SOC [%] ; Relativ SOC[%] ; Desired Voltage [mV]; Desired Current [mA]; Cell Voltage 1 [mV] ; Cell Voltage 2 [mV] ; Max_Error [%] ; Busvoltage[mV] ; Battery Temperature [°C] ; Charger Temperature [°C] ; Batterysystem ; Case ; PLace
009607;10.12.2019;15:29:01;Charge to 30% ;03.12.2018;FEY;;LION;49;14500;7200;224;51;93;100;8400;;4130;4129;1;13009;22.44;23.94;27,1;BCS1388054;5;1
009607;10.12.2019;20:48:54;Stop          ;03.12.2018;FEY;;LION;49;14500;7200;192;52;29;30;8400;3000;3561;3560;1;13008;32.74;32.84;33,1;BCS1388054;5;1
009607;11.12.2019;08:48:53;Fastcharge    ;03.12.2018;FEY;;LION;49;14500;7200;192;52;29;30;8400;3000;3570;3569;1;13007;26.24;28.04;31,9;BCS1388054;5;1
009607;11.12.2019;13:40:11;Stop          ;03.12.2018;FEY;;LION;49;14500;7200;224;52;94;100;8400;;4162;4162;1;13007;29.34;30.24;32,4;BCS1388054;5;1
009607;11.12.2019;15:46:40;Charge to 10% ;03.12.2018;FEY;;LION;49;14500;7200;224;52;96;100;8400;;4153;4153;1;13007;26.94;28.24;31,4;BCS1388054;5;1
009607;11.12.2019;22:49:07;Stop          ;03.12.2018;FEY;;LION;49;14500;7200;192;53;10;10;8400;3000;3350;3350;1;13007;33.54;33.64;33,5;BCS1388054;5;1
009607;12.12.2019;08:45:10;Normalcharge  ;03.12.2018;FEY;;LION;49;14500;7200;192;53;9;10;8400;3000;3363;3363;1;13006;26.44;28.24;31,7;BCS1388054;5;1
009607;12.12.2019;16:41:20;Stop          ;03.12.2018;FEY;;LION;49;14500;7200;224;53;96;100;8400;;4163;4163;1;13006;28.74;29.64;31,6;BCS1388054;5;1
009607;13.12.2019;10:48:05;Charge to 10% ;03.12.2018;FEY;;LION;49;14500;7200;224;53;96;100;8400;;4149;4148;1;13007;26.44;28.24;32,0;BCS1388054;5;1
009607;13.12.2019;15:40:55;Stop          ;03.12.2018;FEY;;LION;49;14500;7200;192;54;35;37;8400;3000;3505;3555;1;13500;32.14;37.34;34,6;BCS1388054;5;1
009607;13.12.2019;15:41:42;Cycle         ;03.12.2018;FEY;;LION;49;14500;7200;192;54;35;37;8400;3000;3585;3585;1;13006;32.14;35.24;34,5;BCS1388054;5;1
009607;14.12.2019;22:39:35;Stop          ;03.12.2018;FEY;;LION;49;14500;7200;224;55;92;99;8400;;4151;4151;1;13007;26.44;28.14;31,7;BCS1388054;5;1
009607;16.12.2019;07:43:20;Charge to 10% ;03.12.2018;FEY;;LION;49;14500;7200;224;55;93;100;8400;;4145;4145;1;13007;26.24;27.34;31,9;BCS1388054;5;1
009607;16.12.2019;14:34:29;Stop          ;03.12.2018;FEY;;LION;49;14500;7200;192;56;10;10;8400;3000;3363;3363;1;13008;31.94;32.14;32,5;BCS1388054;5;1
009607;16.12.2019;14:44:17;Charge to 90% ;03.12.2018;FEY;;LION;49;14500;7200;192;56;10;10;8400;3000;3367;3367;1;13007;31.14;30.44;31,9;BCS1388054;5;1
009607;16.12.2019;20:48:55;Stop          ;03.12.2018;FEY;;LION;49;14500;7200;192;56;84;90;8400;3000;4064;4064;1;13007;31.24;32.04;31,9;BCS1388054;5;1
009607;17.12.2019;08:37:53;Fastcharge    ;03.12.2018;FEY;;LION;49;14500;7200;192;56;84;90;8400;3000;4048;4049;1;13007;26.34;27.94;31,6;BCS1388054;5;1
009607;17.12.2019;10:33:46;Stop          ;03.12.2018;FEY;;LION;49;14500;7200;224;56;95;100;8400;;4160;4161;1;13007;27.84;28.84;31,1;BCS1388054;5;1
009607;17.12.2019;10:33:46;Stop          ;03.12.2018;FEY;;LION;49;14500;7200;224;56;95;100;8400;;4160;4161;1;13007;27.84;28.84;31,1;BCS1388054;5;1
009607;17.12.2019;13:38:36;Charge to 10% ;03.12.2018;FEY;;LION;49;14500;7200;224;56;95;100;8400;;4150;4151;1;13007;26.64;27.84;30,8;BCS1388054;5;1
009607;17.12.2019;20:33:18;Stop          ;03.12.2018;FEY;;LION;49;14500;7200;192;57;10;10;8400;3000;3364;3364;1;13007;33.54;33.54;34,5;BCS1388054;5;1
009607;18.12.2019;08:31:30;Fastcharge    ;03.12.2018;FEY;;LION;49;14500;7200;192;57;10;10;8400;3000;3375;3375;1;13006;26.44;28.04;31,6;BCS1388054;5;1
009607;18.12.2019;14:29:27;Stop          ;03.12.2018;FEY;;LION;49;14500;7200;224;57;95;100;8400;;4161;4163;1;13009;29.34;29.84;31,7;BCS1388054;5;1
009607;19.12.2019;08:24:02;Charge to 60% ;03.12.2018;FEY;;LION;49;14500;7200;224;57;95;100;8400;;4148;4150;1;13007;26.34;27.94;31,5;BCS1388054;5;1
009607;19.12.2019;11:31:09;Stop          ;03.12.2018;FEY;;LION;49;14500;7200;192;58;58;60;8400;3000;3768;3770;1;13007;33.44;33.84;34,4;BCS1388054;5;1
009607;19.12.2019;12:16:49;Cycle         ;03.12.2018;FEY;;LION;49;14500;7200;192;58;58;60;8400;3000;3780;3782;1;13007;29.84;30.04;32,7;BCS1388054;5;1
009607;20.12.2019;17:27:49;Stop          ;03.12.2018;FEY;;LION;49;14500;7200;224;59;93;100;8400;;4152;4152;1;13008;26.64;27.94;31,0;BCS1388054;5;1
009607;06.01.2020;06:34:55;Charge to 60% ;03.12.2018;FEY;;LION;49;14500;7200;224;59;92;99;8400;;4122;4122;1;13008;26.54;28.14;31,9;BCS1388054;5;1
009607;06.01.2020;09:30:26;Stop          ;03.12.2018;FEY;;LION;49;14500;7200;192;60;57;60;8400;3000;3765;3766;1;13008;32.64;33.74;33,9;BCS1388054;5;1
009607;06.01.2020;09:50:42;Fastcharge    ;03.12.2018;FEY;;LION;49;14500;7200;192;60;57;60;8400;3000;3778;3779;1;13008;31.14;30.64;32,7;BCS1388054;5;1
009607;06.01.2020;13:09:56;Stop          ;03.12.2018;FEY;;LION;49;14500;7200;224;60;94;100;8400;;4160;4161;1;13008;28.94;29.34;31,4;BCS1388054;5;1