File: reader/backup_20210330/Batterieverzeichnis_new/009680.txt
Serialnumber ; Date ; Time ; Action ; Date of Manufacture ; Manufacturer ; Battery Name ; Device-Chemistry ; Specification-Info ; Design-Capacity [mAh] ; Design-Voltage [mV] ; Battery Status ; Cycle Count ; SOC [%] ; Relativ SOC[%] ; Desired Voltage [mV]; Desired Current [mA]; Cell Voltage 1 [mV] ; Cell Voltage 2 [mV] ; Max_Error [%] ; Busvoltage[mV] ; Battery Temperature [°C] ; Charger Temperature [°C] ; Batterysystem ; Case ; PLace
009680;10.12.2019;15:28:48;Ladung auf 30% ;04.12.2018;FEY;;LION;49;14500;7200;224;50;92;99;8400;;4129;4128;1;13008;22.94;23.34;27,1;BCS1388054;3;16
009680;10.12.2019;20:47:21;Stop           ;04.12.2018;FEY;;LION;49;14500;7200;192;51;29;30;8400;3000;3561;3560;1;13004;34.44;33.34;33,5;BCS1388054;3;16
009680;11.12.2019;08:48:36;Fastcharge    ;04.12.2018;FEY;;LION;49;14500;7200;192;51;29;30;8400;3000;3569;3568;1;13005;26.64;26.94;31,9;BCS1388054;3;16
009680;11.12.2019;13:39:41;Stop           ;04.12.2018;FEY;;LION;49;14500;7200;224;51;95;100;8400;;4159;4159;1;13004;31.14;29.84;32,5;BCS1388054;3;16
009680;11.12.2019;15:46:24;Ladung auf 10% ;04.12.2018;FEY;;LION;49;14500;7200;224;51;96;100;8400;;4152;4152;1;13006;27.64;27.54;31,4;BCS1388054;3;16
009680;11.12.2019;22:48:44;Stop           ;04.12.2018;FEY;;LION;49;14500;7200;192;52;10;10;8400;3000;3358;3358;1;13004;35.24;33.54;33,6;BCS1388054;3;16
009680;12.12.2019;08:44:58;Normalcharge  ;04.12.2018;FEY;;LION;49;14500;7200;192;52;9;9;8400;3000;3367;3367;1;13005;26.74;27.24;31,9;BCS1388054;3;16
009680;12.12.2019;16:39:24;Stop           ;04.12.2018;FEY;;LION;49;14500;7200;224;52;96;100;8400;;4160;4160;1;13006;30.04;29.34;31,7;BCS1388054;3;16
009680;13.12.2019;10:47:57;Ladung auf 10% ;04.12.2018;FEY;;LION;49;14500;7200;224;52;96;100;8400;;4149;4148;1;13004;26.84;27.24;32,0;BCS1388054;3;16
009680;13.12.2019;15:42:18;Stop           ;04.12.2018;FEY;;LION;49;14500;7200;192;53;35;36;8400;3000;3501;3551;1;13555;34.04;37.54;34,6;BCS1388054;3;16
009680;13.12.2019;15:42:20;Cycle          ;04.12.2018;FEY;;LION;49;14500;7200;192;53;35;36;8400;3000;3501;3551;1;13003;34.04;37.54;34,6;BCS1388054;3;16
009680;14.12.2019;22:36:33;Stop           ;04.12.2018;FEY;;LION;49;14500;7200;224;54;93;100;8400;;4152;4150;1;13006;27.04;27.04;31,6;BCS1388054;3;16
009680;16.12.2019;07:43:10;Ladung auf 10% ;04.12.2018;FEY;;LION;49;14500;7200;224;54;94;100;8400;;4145;4143;1;13006;26.54;26.44;31,9;BCS1388054;3;16
009680;16.12.2019;14:34:27;Stop           ;04.12.2018;FEY;;LION;49;14500;7200;192;55;10;10;8400;3000;3364;3363;1;13005;34.04;32.84;32,5;BCS1388054;3;16
009680;16.12.2019;14:44:07;Ladung auf 90% ;04.12.2018;FEY;;LION;49;14500;7200;192;55;10;10;8400;3000;3367;3366;1;13006;33.24;31.04;31,7;BCS1388054;3;16
009680;16.12.2019;20:48:39;Stop           ;04.12.2018;FEY;;LION;49;14500;7200;192;55;84;90;8400;3000;4054;4055;1;13006;32.94;31.74;31,9;BCS1388054;3;16
009680;17.12.2019;08:37:45;Fastcharge    ;04.12.2018;FEY;;LION;49;14500;7200;192;55;84;90;8400;3000;4043;4043;1;13006;26.64;26.94;31,5;BCS1388054;3;16
009680;17.12.2019;10:30:44;Stop           ;04.12.2018;FEY;;LION;49;14500;7200;224;55;95;100;8400;;4162;4163;1;13006;28.64;28.84;31,4;BCS1388054;3;16
009680;17.12.2019;13:38:28;Ladung auf 10% ;04.12.2018;FEY;;LION;49;14500;7200;224;55;95;100;8400;;4150;4150;1;13006;27.04;27.14;30,8;BCS1388054;3;16
009680;17.12.2019;20:32:04;Stop           ;04.12.2018;FEY;;LION;49;14500;7200;192;56;10;10;8400;3000;3360;3360;1;13005;35.44;34.24;34,6;BCS1388054;3;16
009680;18.12.2019;08:31:22;Fastcharge    ;04.12.2018;FEY;;LION;49;14500;7200;192;56;10;10;8400;3000;3371;3372;1;13006;26.74;27.14;31,6;BCS1388054;3;16
009680;18.12.2019;14:26:33;Stop           ;04.12.2018;FEY;;LION;49;14500;7200;224;56;94;100;8400;;4160;4162;1;13004;31.24;29.94;32,5;BCS1388054;3;16
009680;19.12.2019;08:23:54;Ladung auf 60% ;04.12.2018;FEY;;LION;49;14500;7200;224;56;96;100;8400;;4148;4150;1;13006;26.64;26.94;31,6;BCS1388054;3;16
009680;19.12.2019;11:28:29;Stop           ;04.12.2018;FEY;;LION;49;14500;7200;192;57;57;60;8400;3000;3759;3761;1;13004;35.04;35.94;35,1;BCS1388054;3;16
009680;19.12.2019;12:16:41;Cycle          ;04.12.2018;FEY;;LION;49;14500;7200;192;57;57;60;8400;3000;3773;3778;1;13005;31.54;29.74;32,7;BCS1388054;3;16
009680;20.12.2019;17:23:28;Stop           ;04.12.2018;FEY;;LION;49;14500;7200;224;58;94;100;8400;;4152;4153;1;13005;27.14;27.24;31,9;BCS1388054;3;16
009680;06.01.2020;06:34:46;Ladung auf 60% ;04.12.2018;FEY;;LION;49;14500;7200;224;58;93;99;8400;;4122;4123;1;13006;26.74;26.94;31,9;BCS1388054;3;16
009680;06.01.2020;09:29:20;Stop           ;04.12.2018;FEY;;LION;49;14500;7200;192;58;57;60;8400;3000;3763;3766;1;13006;34.14;34.54;34,2;BCS1388054;3;16
009680;06.01.2020;09:50:34;Fastcharge    ;04.12.2018;FEY;;LION;49;14500;7200;192;58;57;60;8400;3000;3775;3778;1;13006;32.64;30.54;32,7;BCS1388054;3;16
009680;06.01.2020;13:06:26;Stop           ;04.12.2018;FEY;;LION;49;14500;7200;224;58;94;100;8400;;4159;4160;1;13006;30.64;29.64;32,1;BCS1388054;3;16