File: reader/backup_20210330/Batterieverzeichnis_new/009648.txt
Serialnumber ; Date ; Time ; Action ; Date of Manufacture ; Manufacturer ; Battery Name ; Device-Chemistry ; Specification-Info ; Design-Capacity [mAh] ; Design-Voltage [mV] ; Battery Status ; Cycle Count ; SOC [%] ; Relativ SOC[%] ; Desired Voltage [mV]; Desired Current [mA]; Cell Voltage 1 [mV] ; Cell Voltage 2 [mV] ; Max_Error [%] ; Busvoltage[mV] ; Battery Temperature [°C] ; Charger Temperature [°C] ; Batterysystem ; Case ; PLace
009648;10.12.2019;15:28:40;Charge to 30% ;04.12.2018;FEY;;LION;49;14500;7200;224;52;93;99;8400;;4131;4132;1;13025;23.24;24.14;27,1;BCS1388054;2;6
009648;10.12.2019;20:48:37;Stop          ;04.12.2018;FEY;;LION;49;14500;7200;192;53;29;30;8400;3000;3561;3560;1;13021;33.04;31.04;33,2;BCS1388054;2;6
009648;11.12.2019;08:48:24;Fastcharge    ;04.12.2018;FEY;;LION;49;14500;7200;192;53;29;30;8400;3000;3569;3568;1;13023;26.44;26.94;31,9;BCS1388054;2;6
009648;11.12.2019;13:39:47;Stop          ;04.12.2018;FEY;;LION;49;14500;7200;224;53;95;100;8400;;4160;4161;1;13023;29.34;28.34;32,5;BCS1388054;2;6
009648;11.12.2019;15:46:18;Charge to 10% ;04.12.2018;FEY;;LION;49;14500;7200;224;53;96;99;8400;;4152;4152;1;13023;27.04;27.04;31,4;BCS1388054;2;6
009648;11.12.2019;22:49:04;Stop          ;04.12.2018;FEY;;LION;49;14500;7200;192;54;10;10;8400;3000;3360;3358;1;13021;33.54;31.44;33,6;BCS1388054;2;6
009648;12.12.2019;08:44:52;Normalcharge  ;04.12.2018;FEY;;LION;49;14500;7200;192;54;9;10;8400;3000;3369;3367;1;13023;26.64;26.94;31,9;BCS1388054;2;6
009648;12.12.2019;16:40:06;Stop          ;04.12.2018;FEY;;LION;49;14500;7200;224;54;96;100;8400;;4159;4157;1;13022;28.74;28.04;31,7;BCS1388054;2;6
009648;13.12.2019;10:47:50;Charge to 10% ;04.12.2018;FEY;;LION;49;14500;7200;224;54;96;100;8400;;4147;4146;1;13022;26.64;27.14;32,0;BCS1388054;2;6
009648;13.12.2019;15:42:08;Cycle         ;04.12.2018;FEY;;LION;49;14500;7200;192;54;35;36;8400;3000;3500;3549;1;13584;32.64;33.84;34,6;BCS1388054;2;6
009648;13.12.2019;15:42:08;Stop          ;04.12.2018;FEY;;LION;49;14500;7200;192;54;35;36;8400;3000;3500;3549;1;13584;32.64;33.84;34,6;BCS1388054;2;6
009648;14.12.2019;22:48:51;Stop          ;04.12.2018;FEY;;LION;49;14500;7200;224;56;93;99;8400;;4150;4150;1;13023;26.64;26.94;32,0;BCS1388054;2;6
009648;16.12.2019;07:43:06;Charge to 10% ;04.12.2018;FEY;;LION;49;14500;7200;224;56;94;100;8400;;4144;4144;1;13024;26.34;26.64;31,9;BCS1388054;2;6
009648;16.12.2019;14:37:54;Stop          ;04.12.2018;FEY;;LION;49;14500;7200;192;57;10;10;8400;3000;3366;3364;1;13023;32.24;29.84;32,4;BCS1388054;2;6
009648;16.12.2019;14:44:03;Charge to 90% ;04.12.2018;FEY;;LION;49;14500;7200;192;57;10;10;8400;3000;3368;3366;1;13024;31.74;29.24;31,9;BCS1388054;2;6
009648;16.12.2019;20:51:09;Stop          ;04.12.2018;FEY;;LION;49;14500;7200;192;57;84;90;8400;3000;4055;4055;1;13023;30.94;28.94;31,6;BCS1388054;2;6
009648;17.12.2019;08:37:40;Fastcharge    ;04.12.2018;FEY;;LION;49;14500;7200;192;57;85;90;8400;3000;4046;4045;1;13024;26.44;26.74;31,6;BCS1388054;2;6
009648;17.12.2019;10:30:36;Stop          ;04.12.2018;FEY;;LION;49;14500;7200;224;57;95;100;8400;;4160;4160;1;13023;27.74;27.44;31,5;BCS1388054;2;6
009648;17.12.2019;13:38:22;Charge to 10% ;04.12.2018;FEY;;LION;49;14500;7200;224;57;95;100;8400;;4148;4148;1;13022;26.74;26.84;30,8;BCS1388054;2;6
009648;17.12.2019;20:36:00;Stop          ;04.12.2018;FEY;;LION;49;14500;7200;192;58;10;10;8400;3000;3365;3363;1;13022;33.54;31.14;33,6;BCS1388054;2;6
009648;18.12.2019;08:31:17;Fastcharge    ;04.12.2018;FEY;;LION;49;14500;7200;192;58;10;10;8400;3000;3374;3372;1;13024;26.54;26.74;31,6;BCS1388054;2;6
009648;18.12.2019;14:28:27;Stop          ;04.12.2018;FEY;;LION;49;14500;7200;224;58;95;100;8400;;4163;4162;1;13023;29.34;28.34;32,0;BCS1388054;2;6
009648;19.12.2019;08:23:50;Charge to 60% ;04.12.2018;FEY;;LION;49;14500;7200;224;58;96;100;8400;;4148;4147;1;13023;26.44;26.74;31,5;BCS1388054;2;6
009648;19.12.2019;11:32:11;Stop          ;04.12.2018;FEY;;LION;49;14500;7200;192;59;58;60;8400;3000;3770;3767;1;13022;33.64;31.54;34,0;BCS1388054;2;6
009648;19.12.2019;12:16:37;Cycle         ;04.12.2018;FEY;;LION;49;14500;7200;192;59;58;60;8400;3000;3778;3775;1;13023;29.94;28.64;32,7;BCS1388054;2;6
009648;20.12.2019;17:35:47;Stop          ;04.12.2018;FEY;;LION;49;14500;7200;224;60;94;100;8400;;4150;4149;1;13023;26.64;26.74;31,1;BCS1388054;2;6
009648;06.01.2020;06:34:42;Charge to 60% ;04.12.2018;FEY;;LION;49;14500;7200;224;60;93;99;8400;;4121;4120;1;13024;26.44;26.74;31,9;BCS1388054;2;6
009648;06.01.2020;09:32:11;Stop          ;04.12.2018;FEY;;LION;49;14500;7200;192;60;57;60;8400;3000;3774;3771;1;13023;32.84;30.94;33,2;BCS1388054;2;6
009648;06.01.2020;09:50:30;Fastcharge    ;04.12.2018;FEY;;LION;49;14500;7200;192;60;57;60;8400;3000;3781;3777;1;13024;31.24;29.34;32,7;BCS1388054;2;6
009648;06.01.2020;13:08:34;Stop          ;04.12.2018;FEY;;LION;49;14500;7200;224;60;94;100;8400;;4160;4160;1;13024;28.84;27.74;31,6;BCS1388054;2;6