File: reader/backup_20210330/Batterieverzeichnis_new/009702.txt
Serialnumber ; Date ; Time ; Action ; Date of Manufacture ; Manufacturer ; Battery Name ; Device-Chemistry ; Specification-Info ; Design-Capacity [mAh] ; Design-Voltage [mV] ; Battery Status ; Cycle Count ; SOC [%] ; Relativ SOC[%] ; Desired Voltage [mV]; Desired Current [mA]; Cell Voltage 1 [mV] ; Cell Voltage 2 [mV] ; Max_Error [%] ; Busvoltage[mV] ; Battery Temperature [°C] ; Charger Temperature [°C] ; Batterysystem ; Case ; PLace
009702;24.11.2020;08:56:08;Normalcharge  ;04.12.2018;FEY;;LION;49;14500;7200;192;3;65;70;8400;3000;3853;3855;1;13006;24.04;25.14;25,7;BCS1388054;1;17
009702;24.11.2020;08:59:34;Stop          ;04.12.2018;FEY;;LION;49;14500;7200;128;3;66;70;8400;3000;3867;3868;1;12919;24.44;28.44;26,4;BCS1388054;1;17
009702;24.11.2020;08:59:41;Normalcharge  ;04.12.2018;FEY;;LION;49;14500;7200;128;3;66;70;8400;3000;3864;3869;1;13002;24.44;28.24;26,4;BCS1388054;1;17
009702;24.11.2020;16:23:04;Stop          ;04.12.2018;FEY;;LION;49;14500;7200;224;3;94;100;8400;;4154;4157;1;13000;26.84;27.74;28,5;BCS1388054;1;17
009702;07.12.2020;04:14:17;Cycle         ;04.12.2018;FEY;;LION;49;14500;7200;224;3;93;100;8400;;4142;4144;1;12994;25.94;28.54;30,3;BCS1388054;1;8
009702;08.12.2020;16:19:38;Stop          ;04.12.2018;FEY;;LION;49;14500;7200;224;4;95;100;8400;;4152;4154;1;12993;27.84;29.94;31,9;BCS1388054;1;8
009702;03.03.2021;08:17:35;Normalcharge  ;04.12.2018;FEY;;LION;49;14500;7200;192;4;69;73;8400;3000;3875;3876;1;13021;23.44;23.64;23,6;BCS1388054;5;18
009702;03.03.2021;11:26:36;Stop          ;04.12.2018;FEY;;LION;49;14500;7200;224;4;95;100;8400;;4160;4161;1;13015;28.54;30.04;31,5;BCS1388054;5;18