File: V2/reader/Batterieverzeichnis/001032.txt
Serialnumber ; Date ; Time ; Action ; Date of Manufacture ; Manufacturer ; Battery Name ; Device-Chemistry ; Specification-Info ; Design-Capacity [mAh] ; Design-Voltage [mV] ; Battery Status ; Cycle Count ; SOC [%] ; Relativ SOC[%] ; Desired Voltage [mV]; Desired Current [mA]; Cell Voltage 1 [mV] ; Cell Voltage 2 [mV] ; Max_Error [%] ; Busvoltage[mV] ; Battery Temperature [°C] ; Charger Temperature [°C] ; Batterysystem ; Case ; PLace
001032;10.12.2019;15:29:09;Charge to 30% ;28.11.2017;FEY;;LION;49;14500;7200;224;12;91;99;8400;;4122;4123;1;13030;22.64;26.14;27,1;BCS1388054;6;15
001032;10.12.2019;20:46:41;Stop          ;28.11.2017;FEY;;LION;49;14500;7200;192;13;28;30;8400;3000;3558;3558;1;13025;33.44;35.54;33,6;BCS1388054;6;15
001032;11.12.2019;08:49:03;Fastcharge    ;28.11.2017;FEY;;LION;49;14500;7200;192;13;28;30;8400;3000;3565;3566;1;13027;26.34;29.04;31,9;BCS1388054;6;15
001032;11.12.2019;13:39:30;Stop          ;28.11.2017;FEY;;LION;49;14500;7200;224;13;94;100;8400;;4161;4162;1;13028;30.44;31.64;32,5;BCS1388054;6;15
001032;11.12.2019;15:46:47;Charge to 10% ;28.11.2017;FEY;;LION;49;14500;7200;224;13;95;100;8400;;4155;4156;1;13027;27.24;29.44;31,4;BCS1388054;6;15
001032;11.12.2019;22:52:10;Stop          ;28.11.2017;FEY;;LION;49;14500;7200;192;14;10;10;8400;3000;3356;3357;1;13025;34.04;35.04;33,0;BCS1388054;6;15
001032;12.12.2019;08:45:18;Normalcharge  ;28.11.2017;FEY;;LION;49;14500;7200;192;14;9;10;8400;3000;3364;3365;1;13027;26.54;29.24;31,7;BCS1388054;6;15
001032;12.12.2019;16:41:29;Stop          ;28.11.2017;FEY;;LION;49;14500;7200;224;14;94;100;8400;;4159;4159;1;13028;29.44;30.94;31,5;BCS1388054;6;15
001032;13.12.2019;10:48:09;Charge to 10% ;28.11.2017;FEY;;LION;49;14500;7200;224;14;94;100;8400;;4150;4150;1;13028;26.54;29.24;32,0;BCS1388054;6;15
001032;13.12.2019;13:51:54;Stop          ;28.11.2017;FEY;;LION;49;14500;7200;192;14;56;60;8400;3000;3668;3719;1;13517;34.74;43.44;36,1;BCS1388054;6;15
001032;16.12.2019;07:43:34;Charge to 10% ;28.11.2017;FEY;;LION;49;14500;7200;192;14;56;60;8400;3000;3773;3771;1;13014;22.54;26.04;31,7;BCS1388054;7;9
001032;16.12.2019;11:52:34;Stop          ;28.11.2017;FEY;;LION;49;14500;7200;192;15;10;10;8400;3000;3360;3360;1;13011;32.14;31.64;34,7;BCS1388054;7;9
001032;16.12.2019;14:44:25;Charge to 90% ;28.11.2017;FEY;;LION;49;14500;7200;192;15;9;10;8400;3000;3364;3365;1;13013;28.84;28.94;31,7;BCS1388054;7;9
001032;16.12.2019;20:53:58;Stop          ;28.11.2017;FEY;;LION;49;14500;7200;192;15;84;90;8400;3000;4049;4049;1;13014;31.34;29.94;32,1;BCS1388054;7;9
001032;17.12.2019;08:38:01;Fastcharge    ;28.11.2017;FEY;;LION;49;14500;7200;192;15;84;90;8400;3000;4041;4041;1;13014;26.04;27.44;31,6;BCS1388054;7;9
001032;17.12.2019;10:36:25;Stop          ;28.11.2017;FEY;;LION;49;14500;7200;224;15;93;100;8400;;4158;4159;1;13014;27.74;28.34;31,5;BCS1388054;7;9
001032;17.12.2019;13:38:44;Charge to 10% ;28.11.2017;FEY;;LION;49;14500;7200;224;15;93;100;8400;;4151;4151;1;13014;26.44;27.44;30,8;BCS1388054;7;9
001032;17.12.2019;20:42:03;Stop          ;28.11.2017;FEY;;LION;49;14500;7200;192;16;10;10;8400;3000;3359;3360;1;13012;33.14;31.04;32,6;BCS1388054;7;9
001032;18.12.2019;08:31:43;Fastcharge    ;28.11.2017;FEY;;LION;49;14500;7200;192;16;9;10;8400;3000;3367;3368;1;13014;26.14;27.44;31,6;BCS1388054;7;9
001032;18.12.2019;14:30:48;Stop          ;28.11.2017;FEY;;LION;49;14500;7200;224;16;93;100;8400;;4160;4161;1;13013;29.94;28.94;31,6;BCS1388054;7;9
001032;19.12.2019;08:24:17;Charge to 60% ;28.11.2017;FEY;;LION;49;14500;7200;224;16;94;100;8400;;4150;4151;1;13014;26.04;27.44;31,6;BCS1388054;7;9
001032;19.12.2019;11:28:26;Stop          ;28.11.2017;FEY;;LION;49;14500;7200;192;17;56;60;8400;3000;3770;3768;1;13011;33.24;32.94;35,1;BCS1388054;7;9
001032;19.12.2019;12:16:57;Cycle         ;28.11.2017;FEY;;LION;49;14500;7200;192;17;56;60;8400;3000;3781;3780;1;13013;30.24;29.34;32,7;BCS1388054;7;9
001032;20.12.2019;17:22:28;Stop          ;28.11.2017;FEY;;LION;49;14500;7200;224;18;93;100;8400;;4153;4156;1;13014;26.54;27.74;31,9;BCS1388054;7;9
001032;06.01.2020;06:35:02;Charge to 60% ;28.11.2017;FEY;;LION;49;14500;7200;192;18;91;98;8400;;4124;4125;1;13014;26.14;27.44;31,9;BCS1388054;7;9
001032;06.01.2020;09:29:52;Stop          ;28.11.2017;FEY;;LION;49;14500;7200;192;18;56;60;8400;3000;3765;3765;1;13013;32.54;32.04;34,0;BCS1388054;7;9
001032;06.01.2020;09:50:50;Fastcharge    ;28.11.2017;FEY;;LION;49;14500;7200;192;18;56;60;8400;3000;3775;3775;1;13014;31.14;29.84;32,7;BCS1388054;7;9
001032;06.01.2020;13:05:11;Stop          ;28.11.2017;FEY;;LION;49;14500;7200;224;18;93;100;8400;;4159;4163;1;13014;29.54;29.14;32,4;BCS1388054;7;9