File: V2/reader/Batterieverzeichnis/001067.txt
Serialnumber ; Date ; Time ; Action ; Date of Manufacture ; Manufacturer ; Battery Name ; Device-Chemistry ; Specification-Info ; Design-Capacity [mAh] ; Design-Voltage [mV] ; Battery Status ; Cycle Count ; SOC [%] ; Relativ SOC[%] ; Desired Voltage [mV]; Desired Current [mA]; Cell Voltage 1 [mV] ; Cell Voltage 2 [mV] ; Max_Error [%] ; Busvoltage[mV] ; Battery Temperature [°C] ; Charger Temperature [°C] ; Batterysystem ; Case ; PLace
001067;10.12.2019;15:29:09;Charge to 30% ;15.02.2018;FEY;;LION;49;14500;7200;224;12;93;99;8400;;4124;4123;1;13018;22.64;25.44;27,1;BCS1388054;6;9
001067;10.12.2019;20:46:41;Stop          ;15.02.2018;FEY;;LION;49;14500;7200;192;12;29;30;8400;3000;3553;3551;1;13015;33.34;34.54;33,6;BCS1388054;6;9
001067;11.12.2019;08:49:03;Fastcharge    ;15.02.2018;FEY;;LION;49;14500;7200;192;12;29;30;8400;3000;3564;3563;1;13016;26.54;28.24;31,9;BCS1388054;6;9
001067;11.12.2019;13:39:30;Stop          ;15.02.2018;FEY;;LION;49;14500;7200;224;12;96;100;8400;;4163;4165;1;13016;30.54;30.44;32,5;BCS1388054;6;9
001067;11.12.2019;15:46:47;Charge to 10% ;15.02.2018;FEY;;LION;49;14500;7200;224;12;97;100;8400;;4158;4158;1;13017;27.34;28.44;31,4;BCS1388054;6;9
001067;11.12.2019;22:52:10;Stop          ;15.02.2018;FEY;;LION;49;14500;7200;192;14;10;10;8400;3000;3350;3350;1;13015;34.04;33.54;33,0;BCS1388054;6;9
001067;12.12.2019;08:45:18;Normalcharge  ;15.02.2018;FEY;;LION;49;14500;7200;192;14;8;9;8400;3000;3361;3361;1;13016;26.64;28.34;31,7;BCS1388054;6;9
001067;12.12.2019;16:41:29;Stop          ;15.02.2018;FEY;;LION;49;14500;7200;224;14;96;100;8400;;4163;4163;1;13016;29.54;29.74;31,5;BCS1388054;6;9
001067;13.12.2019;10:48:09;Charge to 10% ;15.02.2018;FEY;;LION;49;14500;7200;224;14;96;100;8400;;4152;4152;1;13016;26.74;28.44;32,0;BCS1388054;6;9
001067;13.12.2019;13:51:54;Stop          ;15.02.2018;FEY;;LION;49;14500;7200;192;14;58;60;8400;3000;3687;3734;1;13505;34.44;39.54;36,1;BCS1388054;6;9
001067;13.12.2019;13:53:13;Fastcharge    ;15.02.2018;FEY;;LION;49;14500;7200;192;14;58;60;8400;3000;3770;3768;1;13012;34.44;37.54;35,8;BCS1388054;6;9
001067;13.12.2019;13:53:19;Stop          ;15.02.2018;FEY;;LION;49;14500;7200;192;14;58;60;8400;3000;3771;3769;1;13003;34.44;37.34;35,8;BCS1388054;6;9
001067;13.12.2019;13:53:25;Normalcharge  ;15.02.2018;FEY;;LION;49;14500;7200;192;14;58;60;8400;3000;3771;3769;1;13013;34.44;37.24;35,8;BCS1388054;6;9
001067;13.12.2019;20:04:59;Stop          ;15.02.2018;FEY;;LION;49;14500;7200;224;14;96;100;8400;;4158;4158;1;13016;28.14;29.34;32,0;BCS1388054;6;9
001067;16.12.2019;07:43:27;Charge to 10% ;15.02.2018;FEY;;LION;49;14500;7200;224;14;96;100;8400;;4149;4149;1;13017;26.54;27.34;31,7;BCS1388054;6;9
001067;16.12.2019;14:43:10;Stop          ;15.02.2018;FEY;;LION;49;14500;7200;192;15;10;10;8400;3000;3355;3353;1;13017;32.04;31.54;31,7;BCS1388054;6;9
001067;16.12.2019;14:44:21;Charge to 90% ;15.02.2018;FEY;;LION;49;14500;7200;192;15;10;10;8400;3000;3355;3354;1;13017;31.94;31.14;31,9;BCS1388054;6;9
001067;16.12.2019;20:54:26;Stop          ;15.02.2018;FEY;;LION;49;14500;7200;192;15;86;90;8400;3000;4054;4056;1;13018;32.24;31.94;32,1;BCS1388054;6;9
001067;17.12.2019;08:37:57;Fastcharge    ;15.02.2018;FEY;;LION;49;14500;7200;192;15;86;90;8400;3000;4043;4044;1;13018;26.54;28.24;31,6;BCS1388054;6;9
001067;17.12.2019;13:38:40;Charge to 10% ;15.02.2018;FEY;;LION;49;14500;7200;224;15;96;100;8400;;4155;4155;1;13018;26.84;28.24;30,8;BCS1388054;6;9
001067;17.12.2019;20:41:41;Stop          ;15.02.2018;FEY;;LION;49;14500;7200;192;16;10;10;8400;3000;3353;3352;1;13016;34.04;33.44;32,6;BCS1388054;6;9
001067;18.12.2019;08:31:34;Fastcharge    ;15.02.2018;FEY;;LION;49;14500;7200;192;16;8;9;8400;3000;3364;3364;1;13018;26.64;28.24;31,6;BCS1388054;6;9
001067;18.12.2019;14:33:31;Stop          ;15.02.2018;FEY;;LION;49;14500;7200;224;16;95;100;8400;;4162;4162;1;13017;30.34;29.94;31,4;BCS1388054;6;9
001067;19.12.2019;08:24:06;Charge to 60% ;15.02.2018;FEY;;LION;49;14500;7200;224;16;96;100;8400;;4152;4152;1;13017;26.64;28.14;31,5;BCS1388054;6;9
001067;19.12.2019;11:34:24;Stop          ;15.02.2018;FEY;;LION;49;14500;7200;192;17;58;60;8400;3000;3777;3775;1;13016;33.64;33.34;33,5;BCS1388054;6;9
001067;19.12.2019;12:16:53;Cycle         ;15.02.2018;FEY;;LION;49;14500;7200;192;17;58;60;8400;3000;3782;3782;1;13017;30.64;30.24;32,7;BCS1388054;6;9
001067;20.12.2019;17:31:05;Stop          ;15.02.2018;FEY;;LION;49;14500;7200;224;18;95;100;8400;;4156;4156;1;13017;27.04;28.04;30,6;BCS1388054;6;9
001067;06.01.2020;06:34:58;Charge to 60% ;15.02.2018;FEY;;LION;49;14500;7200;192;18;94;98;8400;;4124;4123;1;13019;26.84;28.34;31,9;BCS1388054;6;9
001067;06.01.2020;09:30:42;Stop          ;15.02.2018;FEY;;LION;49;14500;7200;192;19;58;60;8400;3000;3765;3762;1;13017;33.04;35.24;33,7;BCS1388054;6;9
001067;06.01.2020;09:50:46;Fastcharge    ;15.02.2018;FEY;;LION;49;14500;7200;192;19;58;60;8400;3000;3779;3778;1;13017;31.64;30.84;32,7;BCS1388054;6;9
001067;06.01.2020;13:06:22;Stop          ;15.02.2018;FEY;;LION;49;14500;7200;224;19;96;100;8400;;4161;4161;1;13019;30.04;30.04;32,1;BCS1388054;6;9