File: V2/reader/Batterieverzeichnis/009522.txt
Serialnumber ; Date ; Time ; Action ; Date of Manufacture ; Manufacturer ; Battery Name ; Device-Chemistry ; Specification-Info ; Design-Capacity [mAh] ; Design-Voltage [mV] ; Battery Status ; Cycle Count ; SOC [%] ; Relativ SOC[%] ; Desired Voltage [mV]; Desired Current [mA]; Cell Voltage 1 [mV] ; Cell Voltage 2 [mV] ; Max_Error [%] ; Busvoltage[mV] ; Battery Temperature [°C] ; Charger Temperature [°C] ; Batterysystem ; Case ; PLace
009522;10.12.2019;15:29:09;Charge to 30% ;04.12.2018;FEY;;LION;49;14500;7200;224;29;94;99;8400;;4121;4120;1;13010;22.64;26.54;27,1;BCS1388054;6;2
009522;10.12.2019;20:46:41;Stop          ;04.12.2018;FEY;;LION;49;14500;7200;192;30;29;30;8400;3000;3556;3554;1;13009;32.74;35.84;33,6;BCS1388054;6;2
009522;11.12.2019;08:49:03;Fastcharge    ;04.12.2018;FEY;;LION;49;14500;7200;192;30;29;30;8400;3000;3568;3567;1;13009;26.34;30.04;31,9;BCS1388054;6;2
009522;11.12.2019;13:39:30;Stop          ;04.12.2018;FEY;;LION;49;14500;7200;224;30;96;100;8400;;4165;4165;1;13009;29.94;32.44;32,5;BCS1388054;6;2
009522;11.12.2019;15:46:47;Charge to 10% ;04.12.2018;FEY;;LION;49;14500;7200;224;30;98;100;8400;;4156;4156;1;13007;27.14;30.24;31,4;BCS1388054;6;2
009522;11.12.2019;22:52:10;Stop          ;04.12.2018;FEY;;LION;49;14500;7200;192;31;10;10;8400;3000;3348;3347;1;13009;33.44;35.84;33,0;BCS1388054;6;2
009522;12.12.2019;08:45:18;Normalcharge  ;04.12.2018;FEY;;LION;49;14500;7200;192;31;9;10;8400;3000;3362;3360;1;13009;26.54;30.24;31,7;BCS1388054;6;2
009522;12.12.2019;16:41:29;Stop          ;04.12.2018;FEY;;LION;49;14500;7200;224;31;97;100;8400;;4163;4164;1;13009;29.04;31.74;31,5;BCS1388054;6;2
009522;13.12.2019;10:48:09;Charge to 10% ;04.12.2018;FEY;;LION;49;14500;7200;224;31;97;100;8400;;4151;4151;1;13008;26.54;30.24;32,0;BCS1388054;6;2
009522;13.12.2019;13:51:54;Stop          ;04.12.2018;FEY;;LION;49;14500;7200;192;32;59;61;8400;3000;3682;3731;1;13486;33.94;41.94;36,1;BCS1388054;6;2
009522;13.12.2019;13:53:13;Fastcharge    ;04.12.2018;FEY;;LION;49;14500;7200;192;32;59;61;8400;3000;3768;3766;1;13013;33.94;39.24;35,8;BCS1388054;6;2
009522;13.12.2019;13:53:19;Stop          ;04.12.2018;FEY;;LION;49;14500;7200;192;32;59;61;8400;3000;3769;3767;1;13005;33.94;39.14;35,8;BCS1388054;6;2
009522;13.12.2019;13:53:25;Normalcharge  ;04.12.2018;FEY;;LION;49;14500;7200;192;32;59;61;8400;3000;3769;3767;1;13014;33.94;39.04;35,8;BCS1388054;6;2
009522;13.12.2019;20:04:59;Stop          ;04.12.2018;FEY;;LION;49;14500;7200;224;32;97;100;8400;;4155;4156;1;13015;27.94;31.04;32,0;BCS1388054;6;2
009522;16.12.2019;07:43:27;Charge to 10% ;04.12.2018;FEY;;LION;49;14500;7200;224;32;97;100;8400;;4147;4147;1;13015;26.34;29.14;31,7;BCS1388054;6;2
009522;16.12.2019;14:43:10;Stop          ;04.12.2018;FEY;;LION;49;14500;7200;192;33;10;10;8400;3000;3339;3337;1;13016;31.64;36.44;31,7;BCS1388054;6;2
009522;16.12.2019;14:44:21;Charge to 90% ;04.12.2018;FEY;;LION;49;14500;7200;192;33;10;10;8400;3000;3347;3345;1;13015;31.54;33.94;31,9;BCS1388054;6;2
009522;16.12.2019;20:54:26;Stop          ;04.12.2018;FEY;;LION;49;14500;7200;128;33;87;90;8400;3000;4057;4060;1;13015;31.54;34.94;32,1;BCS1388054;6;2
009522;17.12.2019;08:37:57;Fastcharge    ;04.12.2018;FEY;;LION;49;14500;7200;192;33;87;90;8400;3000;4039;4040;1;13015;26.44;29.84;31,6;BCS1388054;6;2
009522;17.12.2019;13:38:40;Charge to 10% ;04.12.2018;FEY;;LION;49;14500;7200;224;33;97;100;8400;;4153;4156;1;13015;26.74;29.94;30,8;BCS1388054;6;2
009522;17.12.2019;20:41:40;Stop          ;04.12.2018;FEY;;LION;49;14500;7200;192;34;10;10;8400;3000;3250;3300;1;13015;33.54;38.74;32,6;BCS1388054;6;2
009522;18.12.2019;08:31:34;Fastcharge    ;04.12.2018;FEY;;LION;49;14500;7200;192;34;9;9;8400;3000;3360;3360;1;13015;26.54;30.04;31,6;BCS1388054;6;2
009522;18.12.2019;14:33:31;Stop          ;04.12.2018;FEY;;LION;49;14500;7200;224;34;96;100;8400;;4165;4168;1;13015;29.74;32.14;31,4;BCS1388054;6;2
009522;19.12.2019;08:24:06;Charge to 60% ;04.12.2018;FEY;;LION;49;14500;7200;224;34;97;100;8400;;4152;4154;1;13015;26.54;29.94;31,5;BCS1388054;6;2
009522;19.12.2019;11:34:24;Stop          ;04.12.2018;FEY;;LION;49;14500;7200;192;35;59;60;8400;3000;3770;3770;1;13016;33.14;35.14;33,5;BCS1388054;6;2
009522;19.12.2019;12:16:53;Cycle         ;04.12.2018;FEY;;LION;49;14500;7200;192;35;59;60;8400;3000;3781;3781;1;13015;30.24;31.94;32,7;BCS1388054;6;2
009522;20.12.2019;17:31:05;Stop          ;04.12.2018;FEY;;LION;49;14500;7200;224;36;95;100;8400;;4155;4154;1;13015;26.84;29.74;30,6;BCS1388054;6;2
009522;06.01.2020;06:34:58;Charge to 60% ;04.12.2018;FEY;;LION;49;14500;7200;192;36;94;98;8400;;4123;4123;1;13016;26.64;30.04;31,9;BCS1388054;6;2
009522;06.01.2020;09:30:42;Stop          ;04.12.2018;FEY;;LION;49;14500;7200;192;37;58;60;8400;3000;3756;3754;1;13017;32.54;37.94;33,7;BCS1388054;6;2
009522;06.01.2020;09:50:46;Fastcharge    ;04.12.2018;FEY;;LION;49;14500;7200;192;37;58;60;8400;3000;3776;3774;1;13016;31.24;32.34;32,7;BCS1388054;6;2
009522;06.01.2020;13:06:22;Stop          ;04.12.2018;FEY;;LION;49;14500;7200;224;37;96;100;8400;;4162;4162;1;13017;29.34;31.94;32,1;BCS1388054;6;2