File: V2/reader/Batterieverzeichnis/009529.txt
Serialnumber ; Date ; Time ; Action ; Date of Manufacture ; Manufacturer ; Battery Name ; Device-Chemistry ; Specification-Info ; Design-Capacity [mAh] ; Design-Voltage [mV] ; Battery Status ; Cycle Count ; SOC [%] ; Relativ SOC[%] ; Desired Voltage [mV]; Desired Current [mA]; Cell Voltage 1 [mV] ; Cell Voltage 2 [mV] ; Max_Error [%] ; Busvoltage[mV] ; Battery Temperature [°C] ; Charger Temperature [°C] ; Batterysystem ; Case ; PLace
009529;10.12.2019;15:29:09;Charge to 30% ;04.12.2018;FEY;;LION;49;14500;7200;224;27;92;99;8400;;4121;4121;1;13014;22.74;23.64;27,1;BCS1388054;6;5
009529;10.12.2019;20:46:41;Stop          ;04.12.2018;FEY;;LION;49;14500;7200;192;28;29;30;8400;3000;3559;3561;1;13010;32.34;30.54;33,6;BCS1388054;6;5
009529;11.12.2019;08:49:03;Fastcharge    ;04.12.2018;FEY;;LION;49;14500;7200;192;28;29;30;8400;3000;3569;3570;1;13012;26.44;26.54;31,9;BCS1388054;6;5
009529;11.12.2019;13:39:30;Stop          ;04.12.2018;FEY;;LION;49;14500;7200;224;28;95;100;8400;;4163;4163;1;13012;29.14;28.04;32,5;BCS1388054;6;5
009529;11.12.2019;15:46:47;Charge to 10% ;04.12.2018;FEY;;LION;49;14500;7200;224;28;96;100;8400;;4156;4156;1;13012;27.04;26.54;31,4;BCS1388054;6;5
009529;11.12.2019;22:52:10;Stop          ;04.12.2018;FEY;;LION;49;14500;7200;192;29;10;10;8400;3000;3353;3356;1;13011;32.84;30.44;33,0;BCS1388054;6;5
009529;12.12.2019;08:45:18;Normalcharge  ;04.12.2018;FEY;;LION;49;14500;7200;192;29;9;10;8400;3000;3363;3365;1;13012;26.64;26.54;31,7;BCS1388054;6;5
009529;12.12.2019;16:41:29;Stop          ;04.12.2018;FEY;;LION;49;14500;7200;224;29;96;100;8400;;4161;4161;1;13013;28.64;27.54;31,5;BCS1388054;6;5
009529;13.12.2019;10:48:09;Charge to 10% ;04.12.2018;FEY;;LION;49;14500;7200;224;29;96;100;8400;;4150;4150;1;13012;26.64;26.74;32,0;BCS1388054;6;5
009529;13.12.2019;13:51:54;Stop          ;04.12.2018;FEY;;LION;49;14500;7200;192;30;58;60;8400;3000;3677;3731;1;13496;33.64;35.24;36,1;BCS1388054;6;5
009529;13.12.2019;13:53:13;Fastcharge    ;04.12.2018;FEY;;LION;49;14500;7200;192;30;58;60;8400;3000;3763;3766;1;13013;33.64;33.34;35,8;BCS1388054;6;5
009529;13.12.2019;13:53:19;Stop          ;04.12.2018;FEY;;LION;49;14500;7200;192;30;58;60;8400;3000;3763;3766;1;13003;33.64;33.14;35,8;BCS1388054;6;5
009529;13.12.2019;13:53:25;Normalcharge  ;04.12.2018;FEY;;LION;49;14500;7200;192;30;58;60;8400;3000;3764;3766;1;13013;33.64;33.04;35,8;BCS1388054;6;5
009529;13.12.2019;20:04:59;Stop          ;04.12.2018;FEY;;LION;49;14500;7200;224;30;96;100;8400;;4154;4154;1;13017;27.74;27.44;32,0;BCS1388054;6;5
009529;16.12.2019;07:43:27;Charge to 10% ;04.12.2018;FEY;;LION;49;14500;7200;224;30;96;100;8400;;4146;4146;1;13018;26.34;25.34;31,7;BCS1388054;6;5
009529;16.12.2019;14:43:10;Stop          ;04.12.2018;FEY;;LION;49;14500;7200;192;31;10;10;8400;3000;3353;3355;1;13016;31.04;28.54;31,7;BCS1388054;6;5
009529;16.12.2019;14:44:21;Charge to 90% ;04.12.2018;FEY;;LION;49;14500;7200;192;31;10;10;8400;3000;3353;3355;1;13016;30.94;28.34;31,9;BCS1388054;6;5
009529;16.12.2019;20:54:26;Stop          ;04.12.2018;FEY;;LION;49;14500;7200;192;31;85;90;8400;3000;4053;4054;1;13018;30.84;29.04;32,1;BCS1388054;6;5
009529;17.12.2019;08:37:57;Fastcharge    ;04.12.2018;FEY;;LION;49;14500;7200;192;31;86;90;8400;3000;4042;4043;1;13018;26.44;26.54;31,6;BCS1388054;6;5
009529;17.12.2019;13:38:40;Charge to 10% ;04.12.2018;FEY;;LION;49;14500;7200;224;31;96;100;8400;;4153;4154;1;13017;26.74;26.54;30,8;BCS1388054;6;5
009529;17.12.2019;20:41:41;Stop          ;04.12.2018;FEY;;LION;49;14500;7200;192;32;10;10;8400;3000;3350;3353;1;13016;32.94;30.24;32,6;BCS1388054;6;5
009529;18.12.2019;08:31:34;Fastcharge    ;04.12.2018;FEY;;LION;49;14500;7200;192;32;9;9;8400;3000;3362;3365;1;13018;26.54;26.44;31,6;BCS1388054;6;5
009529;18.12.2019;14:33:31;Stop          ;04.12.2018;FEY;;LION;49;14500;7200;224;32;95;100;8400;;4163;4164;1;13017;29.14;27.64;31,4;BCS1388054;6;5
009529;19.12.2019;08:24:06;Charge to 60% ;04.12.2018;FEY;;LION;49;14500;7200;224;32;96;100;8400;;4151;4152;1;13018;26.54;26.54;31,5;BCS1388054;6;5
009529;19.12.2019;11:34:24;Stop          ;04.12.2018;FEY;;LION;49;14500;7200;192;33;58;60;8400;3000;3767;3771;1;13016;32.84;30.44;33,5;BCS1388054;6;5
009529;19.12.2019;12:16:53;Cycle         ;04.12.2018;FEY;;LION;49;14500;7200;192;33;58;60;8400;3000;3777;3782;1;13017;29.74;28.14;32,7;BCS1388054;6;5
009529;20.12.2019;17:31:05;Stop          ;04.12.2018;FEY;;LION;49;14500;7200;224;34;94;100;8400;;4154;4155;1;13017;26.74;26.24;30,6;BCS1388054;6;5
009529;06.01.2020;06:34:58;Charge to 60% ;04.12.2018;FEY;;LION;49;14500;7200;192;34;93;98;8400;;4124;4123;1;13019;26.64;26.64;31,9;BCS1388054;6;5
009529;06.01.2020;09:30:42;Stop          ;04.12.2018;FEY;;LION;49;14500;7200;192;34;57;60;8400;3000;3761;3764;1;13018;32.14;30.84;33,7;BCS1388054;6;5
009529;06.01.2020;09:50:46;Fastcharge    ;04.12.2018;FEY;;LION;49;14500;7200;192;34;57;60;8400;3000;3775;3779;1;13017;30.84;28.74;32,7;BCS1388054;6;5
009529;06.01.2020;13:06:22;Stop          ;04.12.2018;FEY;;LION;49;14500;7200;224;34;95;100;8400;;4163;4164;1;13018;28.84;27.74;32,1;BCS1388054;6;5