File: V2/reader/Batterieverzeichnis/009567.txt
Serialnumber ; Date ; Time ; Action ; Date of Manufacture ; Manufacturer ; Battery Name ; Device-Chemistry ; Specification-Info ; Design-Capacity [mAh] ; Design-Voltage [mV] ; Battery Status ; Cycle Count ; SOC [%] ; Relativ SOC[%] ; Desired Voltage [mV]; Desired Current [mA]; Cell Voltage 1 [mV] ; Cell Voltage 2 [mV] ; Max_Error [%] ; Busvoltage[mV] ; Battery Temperature [°C] ; Charger Temperature [°C] ; Batterysystem ; Case ; PLace
009567;10.12.2019;15:28:40;Charge to 30% ;04.12.2018;FEY;;LION;49;14500;7200;224;53;94;100;8400;;4132;4132;1;12993;22.64;25.04;27,1;BCS1388054;2;7
009567;10.12.2019;20:48:37;Stop          ;04.12.2018;FEY;;LION;49;14500;7200;192;54;29;30;8400;3000;3468;3520;1;12993;33.84;38.44;33,2;BCS1388054;2;7
009567;11.12.2019;08:48:24;Fastcharge    ;04.12.2018;FEY;;LION;49;14500;7200;192;54;29;31;8400;3000;3564;3565;1;12993;26.14;28.64;31,9;BCS1388054;2;7
009567;11.12.2019;13:39:47;Stop          ;04.12.2018;FEY;;LION;49;14500;7200;224;54;95;100;8400;;4164;4163;1;12994;30.54;31.84;32,5;BCS1388054;2;7
009567;11.12.2019;15:46:18;Charge to 10% ;04.12.2018;FEY;;LION;49;14500;7200;224;54;97;100;8400;;4153;4152;1;12993;27.14;29.24;31,4;BCS1388054;2;7
009567;11.12.2019;22:49:04;Stop          ;04.12.2018;FEY;;LION;49;14500;7200;192;55;10;10;8400;3000;3250;3303;1;12993;34.84;39.04;33,6;BCS1388054;2;7
009567;12.12.2019;08:44:52;Normalcharge  ;04.12.2018;FEY;;LION;49;14500;7200;192;55;9;10;8400;3000;3360;3361;1;12994;26.34;28.84;31,9;BCS1388054;2;7
009567;12.12.2019;16:40:06;Stop          ;04.12.2018;FEY;;LION;49;14500;7200;224;55;96;100;8400;;4163;4164;1;12993;29.44;31.34;31,7;BCS1388054;2;7
009567;13.12.2019;10:47:50;Charge to 10% ;04.12.2018;FEY;;LION;49;14500;7200;224;55;96;100;8400;;4148;4147;1;12993;26.34;28.84;32,0;BCS1388054;2;7
009567;13.12.2019;15:42:08;Cycle         ;04.12.2018;FEY;;LION;49;14500;7200;192;55;37;38;8400;3000;3503;3555;1;13550;33.34;40.04;34,6;BCS1388054;2;7
009567;13.12.2019;15:42:08;Stop          ;04.12.2018;FEY;;LION;49;14500;7200;192;55;37;38;8400;3000;3503;3555;1;13550;33.34;40.04;34,6;BCS1388054;2;7
009567;14.12.2019;22:48:51;Stop          ;04.12.2018;FEY;;LION;49;14500;7200;224;57;94;100;8400;;4152;4153;1;12993;26.54;28.94;32,0;BCS1388054;2;7
009567;16.12.2019;07:43:06;Charge to 10% ;04.12.2018;FEY;;LION;49;14500;7200;224;57;93;100;8400;;4146;4147;1;12993;26.04;28.34;31,9;BCS1388054;2;7
009567;16.12.2019;14:37:54;Stop          ;04.12.2018;FEY;;LION;49;14500;7200;192;58;10;10;8400;3000;3362;3364;1;12994;33.34;33.74;32,4;BCS1388054;2;7
009567;16.12.2019;14:44:03;Charge to 90% ;04.12.2018;FEY;;LION;49;14500;7200;192;58;10;10;8400;3000;3365;3367;1;12993;32.84;32.54;31,9;BCS1388054;2;7
009567;16.12.2019;20:51:09;Stop          ;04.12.2018;FEY;;LION;49;14500;7200;192;58;85;90;8400;3000;4062;4064;1;12995;32.24;33.14;31,6;BCS1388054;2;7
009567;17.12.2019;08:37:40;Fastcharge    ;04.12.2018;FEY;;LION;49;14500;7200;192;58;85;90;8400;3000;4047;4049;1;12994;26.14;28.64;31,6;BCS1388054;2;7
009567;17.12.2019;10:30:36;Stop          ;04.12.2018;FEY;;LION;49;14500;7200;224;58;96;100;8400;;4162;4163;1;12994;27.94;30.64;31,5;BCS1388054;2;7
009567;17.12.2019;13:38:22;Charge to 10% ;04.12.2018;FEY;;LION;49;14500;7200;224;58;96;100;8400;;4149;4150;1;12993;26.54;28.74;30,8;BCS1388054;2;7
009567;17.12.2019;20:36:00;Stop          ;04.12.2018;FEY;;LION;49;14500;7200;192;59;10;10;8400;3000;3358;3360;1;12993;34.64;35.04;33,6;BCS1388054;2;7
009567;18.12.2019;08:31:17;Fastcharge    ;04.12.2018;FEY;;LION;49;14500;7200;192;59;10;10;8400;3000;3369;3371;1;12993;26.24;28.74;31,6;BCS1388054;2;7
009567;18.12.2019;14:28:27;Stop          ;04.12.2018;FEY;;LION;49;14500;7200;224;59;96;100;8400;;4160;4159;1;12994;30.64;31.34;32,0;BCS1388054;2;7
009567;19.12.2019;08:23:50;Charge to 60% ;04.12.2018;FEY;;LION;49;14500;7200;224;59;97;100;8400;;4147;4146;1;12993;26.14;28.64;31,5;BCS1388054;2;7
009567;19.12.2019;11:32:11;Stop          ;04.12.2018;FEY;;LION;49;14500;7200;192;60;58;60;8400;3000;3755;3754;1;12993;34.24;36.44;34,0;BCS1388054;2;7
009567;19.12.2019;12:16:37;Cycle         ;04.12.2018;FEY;;LION;49;14500;7200;192;60;58;60;8400;3000;3770;3769;1;12994;30.94;31.24;32,7;BCS1388054;2;7
009567;20.12.2019;17:35:47;Stop          ;04.12.2018;FEY;;LION;49;14500;7200;224;61;94;100;8400;;4152;4153;1;12993;26.54;28.64;31,1;BCS1388054;2;7
009567;06.01.2020;06:34:42;Charge to 60% ;04.12.2018;FEY;;LION;49;14500;7200;224;61;93;99;8400;;4122;4122;1;12994;26.24;28.64;31,9;BCS1388054;2;7
009567;06.01.2020;09:32:11;Stop          ;04.12.2018;FEY;;LION;49;14500;7200;192;61;57;60;8400;3000;3669;3723;1;12994;33.44;38.44;33,2;BCS1388054;2;7
009567;06.01.2020;09:50:30;Fastcharge    ;04.12.2018;FEY;;LION;49;14500;7200;192;61;57;60;8400;3000;3767;3769;1;12994;32.14;31.94;32,7;BCS1388054;2;7
009567;06.01.2020;13:08:34;Stop          ;04.12.2018;FEY;;LION;49;14500;7200;224;61;95;100;8400;;4163;4166;1;12995;30.04;31.24;31,6;BCS1388054;2;7