File: V2/reader/Batterieverzeichnis/009597.txt
Serialnumber ; Date ; Time ; Action ; Date of Manufacture ; Manufacturer ; Battery Name ; Device-Chemistry ; Specification-Info ; Design-Capacity [mAh] ; Design-Voltage [mV] ; Battery Status ; Cycle Count ; SOC [%] ; Relativ SOC[%] ; Desired Voltage [mV]; Desired Current [mA]; Cell Voltage 1 [mV] ; Cell Voltage 2 [mV] ; Max_Error [%] ; Busvoltage[mV] ; Battery Temperature [°C] ; Charger Temperature [°C] ; Batterysystem ; Case ; PLace
009597;07.12.2020;04:14:28;Cycle         ;04.12.2018;FEY;;LION;49;14500;7200;192;3;98;98;8400;;4150;4151;1;13007;25.94;28.04;30,3;BCS1388054;4;1
009597;08.12.2020;16:19:56;Stop          ;04.12.2018;FEY;;LION;49;14500;7200;192;3;98;98;8400;;4147;4148;1;13007;28.04;29.64;31,9;BCS1388054;4;1
009597;12.01.2021;04:17:33;Charge to 90% ;04.12.2018;FEY;;LION;49;14500;7200;192;3;96;97;8400;;4131;4132;1;13019;23.34;22.64;23,6;BCS1388054;4;18
009597;12.01.2021;04:57:16;Stop          ;04.12.2018;FEY;;LION;49;14500;7200;192;3;90;90;8400;3000;4059;4060;1;13014;27.84;28.24;31,6;BCS1388054;4;18
009597;12.01.2021;05:21:49;Cycle         ;04.12.2018;FEY;;LION;49;14500;7200;192;3;90;90;8400;3000;4064;4065;1;13016;27.44;26.84;30,4;BCS1388054;4;18
009597;13.01.2021;08:19:19;Stop          ;04.12.2018;FEY;;LION;49;14500;7200;224;5;96;100;8400;;4154;4156;1;13016;27.04;26.84;30,7;BCS1388054;4;18
009597;22.02.2021;17:31:59;Normalcharge  ;04.12.2018;FEY;;LION;49;14500;7200;192;5;56;58;8400;3000;3715;3717;1;13004;26.54;26.64;31,6;BCS1388054;2;5
009597;22.02.2021;21:53:27;Stop          ;04.12.2018;FEY;;LION;49;14500;7200;224;5;97;100;8400;;4163;4163;1;13006;27.24;28.44;31,7;BCS1388054;2;5