File: V2/reader/Batterieverzeichnis/009520.txt
Serialnumber ; Date ; Time ; Action ; Date of Manufacture ; Manufacturer ; Battery Name ; Device-Chemistry ; Specification-Info ; Design-Capacity [mAh] ; Design-Voltage [mV] ; Battery Status ; Cycle Count ; SOC [%] ; Relativ SOC[%] ; Desired Voltage [mV]; Desired Current [mA]; Cell Voltage 1 [mV] ; Cell Voltage 2 [mV] ; Max_Error [%] ; Busvoltage[mV] ; Battery Temperature [°C] ; Charger Temperature [°C] ; Batterysystem ; Case ; PLace
009520;10.12.2019;15:28:47;Ladung auf 30% ;04.12.2018;FEY;;LION;49;14500;7200;224;45;93;99;8400;;4130;4130;1;13012;22.84;24.24;27,1;BCS1388054;3;5
009520;10.12.2019;20:47:21;Stop           ;04.12.2018;FEY;;LION;49;14500;7200;192;46;29;30;8400;3000;3559;3559;1;13010;33.54;32.54;33,5;BCS1388054;3;5
009520;11.12.2019;08:48:36;Fastcharge    ;04.12.2018;FEY;;LION;49;14500;7200;192;46;29;30;8400;3000;3568;3568;1;13009;26.44;27.34;31,9;BCS1388054;3;5
009520;11.12.2019;13:39:41;Stop           ;04.12.2018;FEY;;LION;49;14500;7200;224;46;95;100;8400;;4161;4161;1;13011;29.84;29.54;32,5;BCS1388054;3;5
009520;11.12.2019;15:46:24;Ladung auf 10% ;04.12.2018;FEY;;LION;49;14500;7200;224;46;96;99;8400;;4152;4153;1;13011;27.24;27.64;31,4;BCS1388054;3;5
009520;11.12.2019;22:48:44;Stop           ;04.12.2018;FEY;;LION;49;14500;7200;192;48;10;10;8400;3000;3351;3352;1;13009;34.24;32.84;33,6;BCS1388054;3;5
009520;12.12.2019;08:44:58;Normalcharge  ;04.12.2018;FEY;;LION;49;14500;7200;192;48;9;10;8400;3000;3362;3363;1;13010;26.64;27.54;31,9;BCS1388054;3;5
009520;12.12.2019;16:39:24;Stop           ;04.12.2018;FEY;;LION;49;14500;7200;224;48;96;100;8400;;4159;4159;1;13009;29.14;28.94;31,7;BCS1388054;3;5
009520;13.12.2019;10:47:57;Ladung auf 10% ;04.12.2018;FEY;;LION;49;14500;7200;224;48;95;100;8400;;4147;4147;1;13009;26.64;27.64;32,0;BCS1388054;3;5
009520;13.12.2019;15:42:18;Stop           ;04.12.2018;FEY;;LION;49;14500;7200;192;48;34;36;8400;3000;3500;3551;1;13549;32.94;35.64;34,6;BCS1388054;3;5
009520;13.12.2019;15:42:20;Cycle          ;04.12.2018;FEY;;LION;49;14500;7200;192;48;34;36;8400;3000;3500;3551;1;13549;32.94;35.64;34,6;BCS1388054;3;5
009520;14.12.2019;22:36:33;Stop           ;04.12.2018;FEY;;LION;49;14500;7200;224;50;93;100;8400;;4150;4149;1;13010;26.74;27.44;31,6;BCS1388054;3;5
009520;16.12.2019;07:43:10;Ladung auf 10% ;04.12.2018;FEY;;LION;49;14500;7200;224;50;94;100;8400;;4144;4143;1;13011;26.44;26.94;31,9;BCS1388054;3;5
009520;16.12.2019;14:34:27;Stop           ;04.12.2018;FEY;;LION;49;14500;7200;192;51;10;10;8400;3000;3362;3363;1;13010;32.84;31.54;32,5;BCS1388054;3;5
009520;16.12.2019;14:44:07;Ladung auf 90% ;04.12.2018;FEY;;LION;49;14500;7200;192;51;10;10;8400;3000;3366;3366;1;13011;32.14;30.34;31,7;BCS1388054;3;5
009520;16.12.2019;20:48:39;Stop           ;04.12.2018;FEY;;LION;49;14500;7200;192;51;84;90;8400;3000;4060;4060;1;13011;31.74;30.54;31,9;BCS1388054;3;5
009520;17.12.2019;08:37:44;Fastcharge    ;04.12.2018;FEY;;LION;49;14500;7200;192;51;84;90;8400;3000;4047;4048;1;13010;26.44;27.34;31,5;BCS1388054;3;5
009520;17.12.2019;10:30:44;Stop           ;04.12.2018;FEY;;LION;49;14500;7200;224;51;95;100;8400;;4158;4159;1;13011;28.04;28.34;31,4;BCS1388054;3;5
009520;17.12.2019;13:38:28;Ladung auf 10% ;04.12.2018;FEY;;LION;49;14500;7200;224;51;95;100;8400;;4148;4149;1;13010;26.84;27.44;30,8;BCS1388054;3;5
009520;17.12.2019;20:32:04;Stop           ;04.12.2018;FEY;;LION;49;14500;7200;192;52;10;10;8400;3000;3363;3365;1;13009;34.24;32.94;34,6;BCS1388054;3;5
009520;18.12.2019;08:31:22;Fastcharge    ;04.12.2018;FEY;;LION;49;14500;7200;192;52;10;11;8400;3000;3373;3375;1;13011;26.64;27.34;31,6;BCS1388054;3;5
009520;18.12.2019;14:26:33;Stop           ;04.12.2018;FEY;;LION;49;14500;7200;224;52;95;100;8400;;4160;4161;1;13011;29.94;29.54;32,5;BCS1388054;3;5
009520;19.12.2019;08:23:54;Ladung auf 60% ;04.12.2018;FEY;;LION;49;14500;7200;224;52;96;100;8400;;4148;4149;1;13010;26.54;27.34;31,6;BCS1388054;3;5
009520;19.12.2019;11:28:29;Stop           ;04.12.2018;FEY;;LION;49;14500;7200;192;52;58;60;8400;3000;3761;3763;1;13008;34.14;34.04;35,1;BCS1388054;3;5
009520;19.12.2019;12:16:41;Cycle          ;04.12.2018;FEY;;LION;49;14500;7200;192;52;58;60;8400;3000;3778;3780;1;13010;30.54;29.64;32,7;BCS1388054;3;5
009520;20.12.2019;17:23:28;Stop           ;04.12.2018;FEY;;LION;49;14500;7200;224;54;94;100;8400;;4151;4153;1;13010;26.84;27.54;31,9;BCS1388054;3;5
009520;06.01.2020;06:34:46;Ladung auf 60% ;04.12.2018;FEY;;LION;49;14500;7200;192;54;92;98;8400;;4121;4122;1;13012;26.64;27.34;31,9;BCS1388054;3;5
009520;06.01.2020;09:29:20;Stop           ;04.12.2018;FEY;;LION;49;14500;7200;192;54;57;60;8400;3000;3771;3774;1;13011;33.34;32.74;34,2;BCS1388054;3;5
009520;06.01.2020;09:50:34;Fastcharge    ;04.12.2018;FEY;;LION;49;14500;7200;192;54;57;60;8400;3000;3781;3784;1;13010;31.74;30.34;32,7;BCS1388054;3;5
009520;06.01.2020;13:06:26;Stop           ;04.12.2018;FEY;;LION;49;14500;7200;224;54;95;100;8400;;4160;4160;1;13011;29.54;29.04;32,1;BCS1388054;3;5