File: V2/reader/Batterieverzeichnis/009612.txt
Serialnumber ; Date ; Time ; Action ; Date of Manufacture ; Manufacturer ; Battery Name ; Device-Chemistry ; Specification-Info ; Design-Capacity [mAh] ; Design-Voltage [mV] ; Battery Status ; Cycle Count ; SOC [%] ; Relativ SOC[%] ; Desired Voltage [mV]; Desired Current [mA]; Cell Voltage 1 [mV] ; Cell Voltage 2 [mV] ; Max_Error [%] ; Busvoltage[mV] ; Battery Temperature [°C] ; Charger Temperature [°C] ; Batterysystem ; Case ; PLace
009612;07.12.2020;04:14:25;Cycle          ;04.12.2018;FEY;;LION;49;14500;7200;224;3;96;99;8400;;4144;4143;1;13002;25.74;26.84;30,3;BCS1388054;3;4
009612;08.12.2020;16:19:50;Stop           ;04.12.2018;FEY;;LION;49;14500;7200;224;5;97;100;8400;;4152;4152;1;13002;27.84;28.44;31,9;BCS1388054;3;4
009612;12.01.2021;04:17:33;Charge to 90% ;04.12.2018;FEY;;LION;49;14500;7200;224;5;95;99;8400;;4132;4132;1;12999;23.04;23.64;23,6;BCS1388054;4;5
009612;12.01.2021;04:57:16;Stop          ;04.12.2018;FEY;;LION;49;14500;7200;192;5;85;90;8400;3000;3944;3995;1;12994;27.84;30.94;31,6;BCS1388054;4;5
009612;12.01.2021;05:21:49;Cycle         ;04.12.2018;FEY;;LION;49;14500;7200;192;5;85;90;8400;3000;4049;4050;1;12995;27.54;27.14;30,4;BCS1388054;4;5
009612;13.01.2021;08:19:19;Stop          ;04.12.2018;FEY;;LION;49;14500;7200;224;6;95;100;8400;;4154;4154;1;12996;27.04;27.34;30,7;BCS1388054;4;5
009612;21.02.2021;13:43:19;Normalcharge  ;04.12.2018;FEY;;LION;49;14500;7200;192;6;92;97;8400;;4113;4113;1;13016;23.54;25.04;27,5;BCS1388054;1;16
009612;22.02.2021;17:08:49;Stop          ;04.12.2018;FEY;;LION;49;14500;7200;192;6;92;97;8400;;4113;4112;1;13015;26.14;26.84;30,0;BCS1388054;1;16