File: V2/reader/Batterieverzeichnis/009634.txt
Serialnumber ; Date ; Time ; Action ; Date of Manufacture ; Manufacturer ; Battery Name ; Device-Chemistry ; Specification-Info ; Design-Capacity [mAh] ; Design-Voltage [mV] ; Battery Status ; Cycle Count ; SOC [%] ; Relativ SOC[%] ; Desired Voltage [mV]; Desired Current [mA]; Cell Voltage 1 [mV] ; Cell Voltage 2 [mV] ; Max_Error [%] ; Busvoltage[mV] ; Battery Temperature [°C] ; Charger Temperature [°C] ; Batterysystem ; Case ; PLace
009634;10.12.2019;15:28:47;Ladung auf 30% ;04.12.2018;FEY;;LION;49;14500;7200;224;51;93;100;8400;;4129;4129;1;13010;22.84;23.94;27,1;BCS1388054;3;4
009634;10.12.2019;20:47:21;Stop           ;04.12.2018;FEY;;LION;49;14500;7200;192;52;29;30;8400;3000;3558;3558;1;13010;33.74;32.74;33,5;BCS1388054;3;4
009634;11.12.2019;08:48:36;Fastcharge    ;04.12.2018;FEY;;LION;49;14500;7200;192;52;29;30;8400;3000;3567;3567;1;13009;26.44;27.24;31,9;BCS1388054;3;4
009634;11.12.2019;13:39:41;Stop           ;04.12.2018;FEY;;LION;49;14500;7200;224;52;94;100;8400;;4162;4161;1;13010;30.24;29.64;32,5;BCS1388054;3;4
009634;11.12.2019;15:46:24;Ladung auf 10% ;04.12.2018;FEY;;LION;49;14500;7200;224;52;96;100;8400;;4153;4152;1;13009;27.34;27.64;31,4;BCS1388054;3;4
009634;11.12.2019;22:48:44;Stop           ;04.12.2018;FEY;;LION;49;14500;7200;192;53;10;10;8400;3000;3353;3353;1;13010;34.44;33.04;33,6;BCS1388054;3;4
009634;12.12.2019;08:44:58;Normalcharge  ;04.12.2018;FEY;;LION;49;14500;7200;192;53;9;10;8400;3000;3363;3363;1;13009;26.64;27.44;31,9;BCS1388054;3;4
009634;12.12.2019;16:39:24;Stop           ;04.12.2018;FEY;;LION;49;14500;7200;224;53;95;100;8400;;4160;4159;1;13010;29.44;29.14;31,7;BCS1388054;3;4
009634;13.12.2019;10:47:57;Ladung auf 10% ;04.12.2018;FEY;;LION;49;14500;7200;224;53;95;100;8400;;4147;4147;1;13010;26.64;27.44;32,0;BCS1388054;3;4
009634;13.12.2019;15:42:18;Stop           ;04.12.2018;FEY;;LION;49;14500;7200;192;54;34;36;8400;3000;3497;3550;1;13546;33.24;36.94;34,6;BCS1388054;3;4
009634;13.12.2019;15:42:20;Cycle          ;04.12.2018;FEY;;LION;49;14500;7200;192;54;34;36;8400;3000;3497;3550;1;13546;33.24;37.04;34,6;BCS1388054;3;4
009634;14.12.2019;22:36:33;Stop           ;04.12.2018;FEY;;LION;49;14500;7200;224;55;93;99;8400;;4151;4150;1;13009;26.84;27.34;31,6;BCS1388054;3;4
009634;16.12.2019;07:43:10;Ladung auf 10% ;04.12.2018;FEY;;LION;49;14500;7200;224;55;93;100;8400;;4145;4144;1;13009;26.44;26.74;31,9;BCS1388054;3;4
009634;16.12.2019;14:34:27;Stop           ;04.12.2018;FEY;;LION;49;14500;7200;192;56;10;10;8400;3000;3364;3364;1;13010;33.04;31.84;32,5;BCS1388054;3;4
009634;16.12.2019;14:44:07;Ladung auf 90% ;04.12.2018;FEY;;LION;49;14500;7200;192;56;10;10;8400;3000;3367;3366;1;13009;32.34;30.54;31,7;BCS1388054;3;4
009634;16.12.2019;20:48:39;Stop           ;04.12.2018;FEY;;LION;49;14500;7200;192;56;84;90;8400;3000;4056;4057;1;13011;31.94;30.94;31,9;BCS1388054;3;4
009634;17.12.2019;08:37:44;Fastcharge    ;04.12.2018;FEY;;LION;49;14500;7200;192;56;84;90;8400;3000;4046;4047;1;13009;26.44;27.14;31,5;BCS1388054;3;4
009634;17.12.2019;10:30:44;Stop           ;04.12.2018;FEY;;LION;49;14500;7200;224;56;94;100;8400;;4161;4161;1;13010;28.14;28.54;31,4;BCS1388054;3;4
009634;17.12.2019;13:38:28;Ladung auf 10% ;04.12.2018;FEY;;LION;49;14500;7200;224;56;94;100;8400;;4148;4149;1;13010;26.84;27.24;30,8;BCS1388054;3;4
009634;17.12.2019;20:32:04;Stop           ;04.12.2018;FEY;;LION;49;14500;7200;192;57;10;10;8400;3000;3363;3363;1;13010;34.44;33.24;34,6;BCS1388054;3;4
009634;18.12.2019;08:31:22;Fastcharge    ;04.12.2018;FEY;;LION;49;14500;7200;192;57;10;10;8400;3000;3373;3374;1;13010;26.64;27.34;31,6;BCS1388054;3;4
009634;18.12.2019;14:26:33;Stop           ;04.12.2018;FEY;;LION;49;14500;7200;224;57;94;100;8400;;4163;4164;1;13009;30.34;29.74;32,5;BCS1388054;3;4
009634;19.12.2019;08:23:54;Ladung auf 60% ;04.12.2018;FEY;;LION;49;14500;7200;224;57;95;100;8400;;4149;4150;1;13009;26.54;27.24;31,6;BCS1388054;3;4
009634;19.12.2019;11:28:29;Stop           ;04.12.2018;FEY;;LION;49;14500;7200;192;58;57;60;8400;3000;3761;3765;1;13010;34.34;34.54;35,1;BCS1388054;3;4
009634;19.12.2019;12:16:41;Cycle          ;04.12.2018;FEY;;LION;49;14500;7200;192;58;57;60;8400;3000;3773;3778;1;13010;30.84;29.64;32,7;BCS1388054;3;4
009634;20.12.2019;17:23:28;Stop           ;04.12.2018;FEY;;LION;49;14500;7200;224;59;93;100;8400;;4150;4150;1;13010;26.94;27.44;31,9;BCS1388054;3;4
009634;06.01.2020;06:34:46;Ladung auf 60% ;04.12.2018;FEY;;LION;49;14500;7200;192;59;92;98;8400;;4121;4120;1;13009;26.64;27.14;31,9;BCS1388054;3;4
009634;06.01.2020;09:29:20;Stop           ;04.12.2018;FEY;;LION;49;14500;7200;192;60;57;60;8400;3000;3767;3770;1;13009;33.44;33.04;34,2;BCS1388054;3;4
009634;06.01.2020;09:50:34;Fastcharge    ;04.12.2018;FEY;;LION;49;14500;7200;192;60;57;60;8400;3000;3776;3778;1;13011;31.94;30.44;32,7;BCS1388054;3;4
009634;06.01.2020;13:06:26;Stop           ;04.12.2018;FEY;;LION;49;14500;7200;224;60;94;100;8400;;4161;4162;1;13011;29.84;29.34;32,1;BCS1388054;3;4