File: V2/reader/Batterieverzeichnis/009658.txt
Serialnumber ; Date ; Time ; Action ; Date of Manufacture ; Manufacturer ; Battery Name ; Device-Chemistry ; Specification-Info ; Design-Capacity [mAh] ; Design-Voltage [mV] ; Battery Status ; Cycle Count ; SOC [%] ; Relativ SOC[%] ; Desired Voltage [mV]; Desired Current [mA]; Cell Voltage 1 [mV] ; Cell Voltage 2 [mV] ; Max_Error [%] ; Busvoltage[mV] ; Battery Temperature [°C] ; Charger Temperature [°C] ; Batterysystem ; Case ; PLace
009658;07.12.2020;04:14:25;Cycle          ;04.12.2018;FEY;;LION;49;14500;7200;192;2;99;98;8400;;4152;4150;1;13003;25.74;26.54;30,3;BCS1388054;3;16
009658;08.12.2020;16:19:50;Stop           ;04.12.2018;FEY;;LION;49;14500;7200;192;2;100;99;8400;;4149;4148;1;13003;27.94;28.24;31,9;BCS1388054;3;16
009658;12.01.2021;04:17:47;Charge to 90% ;04.12.2018;FEY;;LION;49;14500;7200;192;2;98;97;8400;;4134;4132;1;13031;23.14;23.64;23,8;BCS1388054;7;2
009658;12.01.2021;04:57:19;Stop          ;04.12.2018;FEY;;LION;49;14500;7200;192;2;91;90;8400;3000;4060;4059;1;13027;26.64;29.34;31,5;BCS1388054;7;2
009658;12.01.2021;05:22:01;Cycle         ;04.12.2018;FEY;;LION;49;14500;7200;192;2;91;90;8400;3000;4066;4065;1;13028;26.74;28.04;30,4;BCS1388054;7;2
009658;13.01.2021;08:19:29;Stop          ;04.12.2018;FEY;;LION;49;14500;7200;224;3;97;99;8400;;4155;4154;1;13027;26.64;28.04;30,7;BCS1388054;7;2
009658;21.02.2021;13:43:32;Normalcharge  ;04.12.2018;FEY;;LION;49;14500;7200;192;4;57;59;8400;3000;3722;3721;1;13001;23.24;25.34;27,5;BCS1388054;2;17
009658;21.02.2021;19:27:00;Stop          ;04.12.2018;FEY;;LION;49;14500;7200;224;4;97;100;8400;;4155;4156;1;13001;26.94;28.44;31,1;BCS1388054;2;17