File: V2/reader/Batterieverzeichnis/009601.txt
Serialnumber ; Date ; Time ; Action ; Date of Manufacture ; Manufacturer ; Battery Name ; Device-Chemistry ; Specification-Info ; Design-Capacity [mAh] ; Design-Voltage [mV] ; Battery Status ; Cycle Count ; SOC [%] ; Relativ SOC[%] ; Desired Voltage [mV]; Desired Current [mA]; Cell Voltage 1 [mV] ; Cell Voltage 2 [mV] ; Max_Error [%] ; Busvoltage[mV] ; Battery Temperature [°C] ; Charger Temperature [°C] ; Batterysystem ; Case ; PLace
009601;07.12.2020;04:14:25;Cycle          ;04.12.2018;FEY;;LION;49;14500;7200;16576;1;97;98;;;4153;4153;1;13013;25.94;27.34;30,3;BCS1388054;3;14
009601;08.12.2020;16:19:50;Stop           ;04.12.2018;FEY;;LION;49;14500;7200;16576;1;97;99;;;4150;4150;1;13014;28.14;29.14;31,9;BCS1388054;3;14
009601;12.01.2021;04:17:47;Charge to 90% ;04.12.2018;FEY;;LION;49;14500;7200;16576;1;95;97;;;4134;4134;1;13033;23.24;23.94;23,8;BCS1388054;7;1
009601;12.01.2021;04:57:19;Stop          ;04.12.2018;FEY;;LION;49;14500;7200;192;1;89;90;8400;3000;4063;4062;1;13028;27.34;29.74;31,5;BCS1388054;7;1
009601;12.01.2021;05:22:01;Cycle         ;04.12.2018;FEY;;LION;49;14500;7200;192;1;89;90;8400;3000;4068;4067;1;13029;27.14;28.34;30,4;BCS1388054;7;1
009601;13.01.2021;08:19:29;Stop          ;04.12.2018;FEY;;LION;49;14500;7200;224;3;97;100;8400;;4154;4156;1;13029;26.74;28.24;30,7;BCS1388054;7;1
009601;21.02.2021;13:43:19;Normalcharge  ;04.12.2018;FEY;;LION;49;14500;7200;192;3;59;61;8400;3000;3748;3755;1;12986;24.14;25.24;27,5;BCS1388054;1;12
009601;22.02.2021;17:08:49;Stop          ;04.12.2018;FEY;;LION;49;14500;7200;224;3;97;100;8400;;4148;4152;1;12987;26.24;26.44;30,0;BCS1388054;1;12