File: reader/backup_20220214/Batterieverzeichnis/001078.txt
Serialnumber ; Date ; Time ; Action ; Date of Manufacture ; Manufacturer ; Battery Name ; Device-Chemistry ; Specification-Info ; Design-Capacity [mAh] ; Design-Voltage [mV] ; Battery Status ; Cycle Count ; SOC [%] ; Relativ SOC[%] ; Desired Voltage [mV]; Desired Current [mA]; Cell Voltage 1 [mV] ; Cell Voltage 2 [mV] ; Max_Error [%] ; Busvoltage[mV] ; Battery Temperature [°C] ; Charger Temperature [°C] ; Batterysystem ; Case ; PLace
001078;10.12.2019;15:29:15;Charge to 30% ;15.02.2018;FEY;;LION;49;14500;7200;224;23;93;99;8400;;4123;4123;1;13035;22.84;25.54;27,1;BCS1388054;7;8
001078;10.12.2019;20:46:56;Stop          ;15.02.2018;FEY;;LION;49;14500;7200;192;24;29;30;8400;3000;3558;3559;1;13033;33.44;33.14;33,5;BCS1388054;7;8
001078;11.12.2019;08:49:12;Fastcharge    ;15.02.2018;FEY;;LION;49;14500;7200;192;24;29;30;8400;3000;3568;3568;1;13035;26.44;28.44;31,9;BCS1388054;7;8
001078;11.12.2019;13:38:42;Stop          ;15.02.2018;FEY;;LION;49;14500;7200;224;24;95;100;8400;;4163;4163;1;13034;30.44;30.54;32,7;BCS1388054;7;8
001078;11.12.2019;15:46:56;Charge to 10% ;15.02.2018;FEY;;LION;49;14500;7200;224;24;96;100;8400;;4156;4156;1;13035;27.34;28.64;31,2;BCS1388054;7;8
001078;11.12.2019;22:51:50;Stop          ;15.02.2018;FEY;;LION;49;14500;7200;192;25;10;10;8400;3000;3351;3353;1;13033;34.24;32.94;33,0;BCS1388054;7;8
001078;12.12.2019;08:45:27;Normalcharge  ;15.02.2018;FEY;;LION;49;14500;7200;192;25;9;10;8400;3000;3361;3362;1;13034;26.64;28.54;31,7;BCS1388054;7;8
001078;12.12.2019;16:41:08;Stop          ;15.02.2018;FEY;;LION;49;14500;7200;224;25;96;100;8400;;4162;4162;1;13033;29.54;29.74;31,6;BCS1388054;7;8
001078;13.12.2019;10:48:13;Charge to 10% ;15.02.2018;FEY;;LION;49;14500;7200;224;25;96;100;8400;;4151;4151;1;13033;26.64;28.64;32,0;BCS1388054;7;8
001078;13.12.2019;13:48:48;Stop          ;15.02.2018;FEY;;LION;49;14500;7200;192;25;59;61;8400;3000;3685;3738;1;13533;34.54;40.04;36,8;BCS1388054;7;8
001078;16.12.2019;07:43:27;Charge to 10% ;15.02.2018;FEY;;LION;49;14500;7200;192;25;61;64;8400;3000;3789;3792;1;12993;23.04;26.04;31,7;BCS1388054;6;16
001078;16.12.2019;14:43:10;Stop          ;15.02.2018;FEY;;LION;49;14500;7200;192;26;10;10;8400;3000;3348;3350;1;12993;30.34;30.04;31,7;BCS1388054;6;16
001078;16.12.2019;14:44:21;Charge to 90% ;15.02.2018;FEY;;LION;49;14500;7200;192;26;10;10;8400;3000;3348;3350;1;12993;30.34;29.84;31,9;BCS1388054;6;16
001078;16.12.2019;20:54:26;Stop          ;15.02.2018;FEY;;LION;49;14500;7200;192;26;85;90;8400;3000;4028;4027;1;12994;32.84;30.84;32,1;BCS1388054;6;16
001078;17.12.2019;08:37:58;Fastcharge    ;15.02.2018;FEY;;LION;49;14500;7200;192;26;85;90;8400;3000;4018;4017;1;12993;26.84;26.94;31,6;BCS1388054;6;16
001078;17.12.2019;13:38:40;Charge to 10% ;15.02.2018;FEY;;LION;49;14500;7200;224;26;95;100;8400;;4152;4149;1;12992;27.24;27.04;30,8;BCS1388054;6;16
001078;17.12.2019;20:41:41;Stop          ;15.02.2018;FEY;;LION;49;14500;7200;192;27;10;10;8400;3000;3343;3344;1;12994;34.94;33.54;32,6;BCS1388054;6;16
001078;18.12.2019;08:31:34;Fastcharge    ;15.02.2018;FEY;;LION;49;14500;7200;192;27;9;9;8400;3000;3358;3358;1;12994;26.94;27.04;31,6;BCS1388054;6;16
001078;18.12.2019;14:33:31;Stop          ;15.02.2018;FEY;;LION;49;14500;7200;224;27;94;100;8400;;4162;4159;1;12993;30.94;28.84;31,4;BCS1388054;6;16
001078;19.12.2019;08:24:06;Charge to 60% ;15.02.2018;FEY;;LION;49;14500;7200;224;27;96;100;8400;;4151;4148;1;12992;26.94;27.04;31,5;BCS1388054;6;16
001078;19.12.2019;11:34:24;Stop          ;15.02.2018;FEY;;LION;49;14500;7200;192;28;58;60;8400;3000;3764;3766;1;12993;34.34;32.14;33,5;BCS1388054;6;16
001078;19.12.2019;12:16:53;Cycle         ;15.02.2018;FEY;;LION;49;14500;7200;192;28;58;60;8400;3000;3773;3777;1;12993;31.24;29.14;32,7;BCS1388054;6;16
001078;20.12.2019;17:31:05;Stop          ;15.02.2018;FEY;;LION;49;14500;7200;224;29;94;99;8400;;4153;4152;1;12993;27.34;26.94;30,6;BCS1388054;6;16
001078;06.01.2020;06:34:58;Charge to 60% ;15.02.2018;FEY;;LION;49;14500;7200;192;29;93;98;8400;;4123;4122;1;12994;27.04;27.14;31,9;BCS1388054;6;16
001078;06.01.2020;09:30:42;Stop          ;15.02.2018;FEY;;LION;49;14500;7200;192;29;57;60;8400;3000;3765;3768;1;12994;33.74;32.74;33,7;BCS1388054;6;16
001078;06.01.2020;09:50:46;Fastcharge    ;15.02.2018;FEY;;LION;49;14500;7200;192;29;57;60;8400;3000;3775;3781;1;12994;32.24;29.74;32,7;BCS1388054;6;16
001078;06.01.2020;13:06:22;Stop          ;15.02.2018;FEY;;LION;49;14500;7200;224;29;95;100;8400;;4161;4160;1;12995;30.54;28.94;32,1;BCS1388054;6;16