File: reader/backup_20220214/Batterieverzeichnis/001080.txt
Serialnumber ; Date ; Time ; Action ; Date of Manufacture ; Manufacturer ; Battery Name ; Device-Chemistry ; Specification-Info ; Design-Capacity [mAh] ; Design-Voltage [mV] ; Battery Status ; Cycle Count ; SOC [%] ; Relativ SOC[%] ; Desired Voltage [mV]; Desired Current [mA]; Cell Voltage 1 [mV] ; Cell Voltage 2 [mV] ; Max_Error [%] ; Busvoltage[mV] ; Battery Temperature [°C] ; Charger Temperature [°C] ; Batterysystem ; Case ; PLace
001080;10.12.2019;15:29:09;Charge to 30% ;15.02.2018;FEY;;LION;49;14500;7200;224;12;93;99;8400;;4124;4124;1;13004;22.74;25.44;27,1;BCS1388054;6;18
001080;10.12.2019;20:46:41;Stop          ;15.02.2018;FEY;;LION;49;14500;7200;192;13;29;30;8400;3000;3558;3558;1;13001;32.14;34.54;33,6;BCS1388054;6;18
001080;11.12.2019;08:49:03;Fastcharge    ;15.02.2018;FEY;;LION;49;14500;7200;192;13;29;30;8400;3000;3568;3568;1;13003;26.24;28.14;31,9;BCS1388054;6;18
001080;11.12.2019;13:39:30;Stop          ;15.02.2018;FEY;;LION;49;14500;7200;224;13;95;100;8400;;4162;4163;1;13002;28.94;30.64;32,5;BCS1388054;6;18
001080;11.12.2019;15:46:47;Charge to 10% ;15.02.2018;FEY;;LION;49;14500;7200;224;13;97;100;8400;;4156;4156;1;13003;26.84;28.54;31,4;BCS1388054;6;18
001080;11.12.2019;22:52:10;Stop          ;15.02.2018;FEY;;LION;49;14500;7200;192;14;10;10;8400;3000;3353;3354;1;13002;32.54;33.94;33,0;BCS1388054;6;18
001080;12.12.2019;08:45:18;Normalcharge  ;15.02.2018;FEY;;LION;49;14500;7200;192;14;9;9;8400;3000;3363;3364;1;13004;26.44;28.34;31,7;BCS1388054;6;18
001080;12.12.2019;16:41:29;Stop          ;15.02.2018;FEY;;LION;49;14500;7200;224;14;96;100;8400;;4162;4162;1;13002;28.44;29.94;31,5;BCS1388054;6;18
001080;13.12.2019;10:48:09;Charge to 10% ;15.02.2018;FEY;;LION;49;14500;7200;224;14;96;100;8400;;4151;4152;1;13002;26.44;28.34;32,0;BCS1388054;6;18
001080;13.12.2019;13:51:54;Stop          ;15.02.2018;FEY;;LION;49;14500;7200;192;15;58;61;8400;3000;3682;3733;1;13502;33.44;42.54;36,1;BCS1388054;6;18
001080;16.12.2019;07:43:34;Charge to 10% ;15.02.2018;FEY;;LION;49;14500;7200;192;15;60;63;8400;3000;3783;3784;1;13032;22.64;27.04;31,7;BCS1388054;7;1
001080;16.12.2019;11:52:34;Stop          ;15.02.2018;FEY;;LION;49;14500;7200;192;15;10;10;8400;3000;3353;3354;1;13031;31.34;32.44;34,7;BCS1388054;7;1
001080;16.12.2019;14:44:25;Charge to 90% ;15.02.2018;FEY;;LION;49;14500;7200;192;15;9;10;8400;3000;3359;3360;1;13031;28.24;29.84;31,7;BCS1388054;7;1
001080;16.12.2019;20:53:58;Stop          ;15.02.2018;FEY;;LION;49;14500;7200;192;15;84;90;8400;3000;4032;4034;1;13032;29.84;30.64;32,1;BCS1388054;7;1
001080;17.12.2019;08:38:01;Fastcharge    ;15.02.2018;FEY;;LION;49;14500;7200;192;15;85;90;8400;3000;4024;4026;1;13032;25.84;28.24;31,6;BCS1388054;7;1
001080;17.12.2019;10:36:25;Stop          ;15.02.2018;FEY;;LION;49;14500;7200;224;15;95;100;8400;;4162;4165;1;13032;27.14;29.24;31,5;BCS1388054;7;1
001080;17.12.2019;13:38:44;Charge to 10% ;15.02.2018;FEY;;LION;49;14500;7200;224;15;95;100;8400;;4154;4157;1;13031;26.14;28.34;30,8;BCS1388054;7;1
001080;17.12.2019;20:42:03;Stop          ;15.02.2018;FEY;;LION;49;14500;7200;192;17;10;10;8400;3000;3351;3354;1;13032;32.04;32.24;32,6;BCS1388054;7;1
001080;18.12.2019;08:31:43;Fastcharge    ;15.02.2018;FEY;;LION;49;14500;7200;192;17;9;9;8400;3000;3362;3365;1;13032;25.94;28.34;31,6;BCS1388054;7;1
001080;18.12.2019;14:30:48;Stop          ;15.02.2018;FEY;;LION;49;14500;7200;224;17;94;100;8400;;4162;4167;1;13032;28.34;29.84;31,6;BCS1388054;7;1
001080;19.12.2019;08:24:17;Charge to 60% ;15.02.2018;FEY;;LION;49;14500;7200;224;17;95;100;8400;;4150;4155;1;13032;25.84;28.24;31,6;BCS1388054;7;1
001080;19.12.2019;11:28:26;Stop          ;15.02.2018;FEY;;LION;49;14500;7200;192;17;58;60;8400;3000;3760;3765;1;13030;32.34;35.44;35,1;BCS1388054;7;1
001080;19.12.2019;12:16:57;Cycle         ;15.02.2018;FEY;;LION;49;14500;7200;192;17;58;60;8400;3000;3779;3785;1;13032;28.64;29.94;32,7;BCS1388054;7;1
001080;20.12.2019;17:22:28;Stop          ;15.02.2018;FEY;;LION;49;14500;7200;224;18;94;100;8400;;4154;4155;1;13032;26.14;28.44;31,9;BCS1388054;7;1
001080;06.01.2020;06:35:02;Charge to 60% ;15.02.2018;FEY;;LION;49;14500;7200;192;18;93;98;8400;;4124;4124;1;13034;26.04;28.24;31,9;BCS1388054;7;1
001080;06.01.2020;09:29:52;Stop          ;15.02.2018;FEY;;LION;49;14500;7200;192;19;57;60;8400;3000;3763;3765;1;13031;31.54;33.74;34,0;BCS1388054;7;1
001080;06.01.2020;09:50:50;Fastcharge    ;15.02.2018;FEY;;LION;49;14500;7200;192;19;57;60;8400;3000;3777;3780;1;13032;29.64;30.54;32,7;BCS1388054;7;1
001080;06.01.2020;13:05:11;Stop          ;15.02.2018;FEY;;LION;49;14500;7200;224;19;95;100;8400;;4160;4161;1;13033;27.94;29.84;32,4;BCS1388054;7;1