File: reader/backup_20220214/Batterieverzeichnis/009544.txt
Serialnumber ; Date ; Time ; Action ; Date of Manufacture ; Manufacturer ; Battery Name ; Device-Chemistry ; Specification-Info ; Design-Capacity [mAh] ; Design-Voltage [mV] ; Battery Status ; Cycle Count ; SOC [%] ; Relativ SOC[%] ; Desired Voltage [mV]; Desired Current [mA]; Cell Voltage 1 [mV] ; Cell Voltage 2 [mV] ; Max_Error [%] ; Busvoltage[mV] ; Battery Temperature [°C] ; Charger Temperature [°C] ; Batterysystem ; Case ; PLace
009544;07.02.2021;08:46:42;Normalcharge  ;04.12.2018;FEY;;LION;49;14500;7200;192;5;97;98;8400;;4120;4121;1;13004;23.24;27.04;29,2;BCS1388054;1;3
009544;07.02.2021;11:52:07;Stop          ;04.12.2018;FEY;;LION;49;14500;7200;192;5;97;98;8400;;4121;4121;1;13003;25.44;28.04;29,7;BCS1388054;1;3
009544;03.03.2021;08:17:21;Normalcharge  ;04.12.2018;FEY;;LION;49;14500;7200;192;5;92;93;8400;3000;4071;4071;1;13006;22.94;22.34;23,5;BCS1388054;3;11
009544;04.03.2021;07:53:40;Stop           ;04.12.2018;FEY;;LION;49;14500;7200;224;5;99;100;8400;;4147;4147;1;13001;26.14;26.14;31,5;BCS1388054;3;11
009544;04.04.2021;11:50:10;Normalcharge  ;04.12.2018;FEY;;LION;49;14500;7200;192;6;53;54;8400;3000;3686;3686;1;13006;24.64;25.34;27,8;BCS1388054;5;10
009544;04.04.2021;11:51:30;Stop          ;04.12.2018;FEY;;LION;49;14500;7200;128;6;53;54;8400;3000;3775;3728;1;12664;24.64;28.34;28,5;BCS1388054;5;10
009544;05.04.2021;09:37:46;Charge to 60% ;04.12.2018;FEY;;LION;49;14500;7200;192;6;53;54;8400;3000;3688;3688;1;13005;24.74;26.94;26,1;BCS1388054;2;10
009544;05.04.2021;10:03:48;Stop          ;04.12.2018;FEY;;LION;49;14500;7200;128;6;58;60;8400;3000;3766;3770;1;13001;26.94;32.54;31,4;BCS1388054;2;10
009544;22.08.2021;11:07:55;Normalcharge  ;04.12.2018;FEY;;LION;49;14500;7200;192;6;44;45;8400;3000;3618;3619;1;12991;22.04;29.54;32,0;BCS1388054;2;11
009544;22.08.2021;11:08:28;Stop          ;04.12.2018;FEY;;LION;49;14500;7200;128;6;44;45;8400;3000;3689;3650;1;12580;22.14;30.54;32,4;BCS1388054;2;11
009544;25.08.2021;08:14:57;Charge to 60% ;04.12.2018;FEY;;LION;49;14500;7200;192;6;44;45;8400;3000;3620;3621;1;12982;30.14;32.74;33,2;BCS1388054;6;13
009544;25.08.2021;09:50:39;Stop          ;04.12.2018;FEY;;LION;49;14500;7200;192;6;58;60;8400;3000;3736;3736;1;12982;34.24;36.54;36,4;BCS1388054;6;13
009544;01.11.2021;10:18:21;Normalcharge  ;04.12.2018;FEY;;LION;49;14500;7200;192;6;55;56;8400;3000;3705;3705;1;12999;25.44;26.64;28,4;BCS1388054;4;6
009544;01.11.2021;10:19:03;Stop          ;04.12.2018;FEY;;LION;49;14500;7200;128;6;55;56;8400;3000;3781;3739;1;12575;25.54;28.04;28,2;BCS1388054;4;6
009544;01.11.2021;10:28:22;Normalcharge  ;04.12.2018;FEY;;LION;49;14500;7200;192;6;55;56;8400;3000;3706;3706;1;13000;25.64;26.94;27,9;BCS1388054;4;6
009544;01.11.2021;10:29:09;Stop          ;04.12.2018;FEY;;LION;49;14500;7200;128;6;55;56;8400;3000;3789;3745;1;12567;25.64;28.64;28,5;BCS1388054;4;6
009544;01.11.2021;10:32:29;Charge to 60% ;04.12.2018;FEY;;LION;49;14500;7200;192;6;55;56;8400;3000;3707;3708;1;12999;25.74;27.44;29,7;BCS1388054;4;6
009544;01.11.2021;15:19:33;Stop          ;04.12.2018;FEY;;LION;49;14500;7200;192;6;58;60;8400;3000;3750;3751;1;12998;28.04;28.74;32,7;BCS1388054;4;6
009544;07.02.2022;08:51:04;Normalcharge  ;04.12.2018;FEY;;LION;49;14500;7200;192;6;55;56;8400;3000;3710;3711;1;13011;22.04;23.64;25,1;BCS1388054;3;13