File: reader/backup_20220214/Batterieverzeichnis/009533.txt
Serialnumber ; Date ; Time ; Action ; Date of Manufacture ; Manufacturer ; Battery Name ; Device-Chemistry ; Specification-Info ; Design-Capacity [mAh] ; Design-Voltage [mV] ; Battery Status ; Cycle Count ; SOC [%] ; Relativ SOC[%] ; Desired Voltage [mV]; Desired Current [mA]; Cell Voltage 1 [mV] ; Cell Voltage 2 [mV] ; Max_Error [%] ; Busvoltage[mV] ; Battery Temperature [°C] ; Charger Temperature [°C] ; Batterysystem ; Case ; PLace
009533;10.12.2019;15:28:54;Charge to 30% ;04.12.2018;FEY;;LION;49;14500;7200;224;54;92;99;8400;;4127;4126;1;13015;22.84;24.34;27,1;BCS1388054;4;6
009533;10.12.2019;20:47:57;Stop          ;04.12.2018;FEY;;LION;49;14500;7200;192;55;28;30;8400;3000;3560;3559;1;13013;32.94;31.14;33,4;BCS1388054;4;6
009533;11.12.2019;08:48:41;Fastcharge    ;04.12.2018;FEY;;LION;49;14500;7200;192;55;28;30;8400;3000;3567;3566;1;13015;26.44;27.34;31,9;BCS1388054;4;6
009533;11.12.2019;13:42:44;Stop          ;04.12.2018;FEY;;LION;49;14500;7200;224;55;94;100;8400;;4158;4158;1;13015;29.24;28.34;31,9;BCS1388054;4;6
009533;11.12.2019;15:46:31;Charge to 10% ;04.12.2018;FEY;;LION;49;14500;7200;224;55;95;100;8400;;4151;4151;1;13014;27.14;27.24;31,4;BCS1388054;4;6
009533;11.12.2019;22:50:44;Stop          ;04.12.2018;FEY;;LION;49;14500;7200;192;56;10;10;8400;3000;3354;3354;1;13014;33.34;31.24;33,2;BCS1388054;4;6
009533;12.12.2019;08:45:03;Normalcharge  ;04.12.2018;FEY;;LION;49;14500;7200;192;56;9;10;8400;3000;3363;3363;1;13014;26.64;27.14;31,9;BCS1388054;4;6
009533;12.12.2019;16:41:48;Stop          ;04.12.2018;FEY;;LION;49;14500;7200;224;56;95;100;8400;;4158;4158;1;13015;28.74;28.14;31,5;BCS1388054;4;6
009533;13.12.2019;10:48:01;Charge to 10% ;04.12.2018;FEY;;LION;49;14500;7200;224;56;95;100;8400;;4146;4146;1;13015;26.64;27.54;32,0;BCS1388054;4;6
009533;13.12.2019;15:42:25;Stop          ;04.12.2018;FEY;;LION;49;14500;7200;192;57;34;36;8400;3000;3496;3547;1;13515;32.34;33.94;34,6;BCS1388054;4;6
009533;13.12.2019;15:42:27;Cycle         ;04.12.2018;FEY;;LION;49;14500;7200;192;57;34;36;8400;3000;3496;3546;1;13013;32.34;33.84;34,6;BCS1388054;4;6
009533;14.12.2019;22:44:28;Stop          ;04.12.2018;FEY;;LION;49;14500;7200;224;58;93;100;8400;;4150;4148;1;13015;26.64;27.44;32,0;BCS1388054;4;6
009533;16.12.2019;07:43:14;Charge to 10% ;04.12.2018;FEY;;LION;49;14500;7200;224;58;92;100;8400;;4144;4143;1;13014;26.44;26.54;31,9;BCS1388054;4;6
009533;16.12.2019;14:36:44;Stop          ;04.12.2018;FEY;;LION;49;14500;7200;192;59;10;10;8400;3000;3363;3363;1;13014;31.84;29.94;32,4;BCS1388054;4;6
009533;16.12.2019;14:44:13;Charge to 90% ;04.12.2018;FEY;;LION;49;14500;7200;192;59;10;10;8400;3000;3364;3364;1;13014;31.34;29.14;31,7;BCS1388054;4;6
009533;16.12.2019;20:50:27;Stop          ;04.12.2018;FEY;;LION;49;14500;7200;192;59;84;90;8400;3000;4054;4054;1;13015;30.94;29.24;31,6;BCS1388054;4;6
009533;17.12.2019;08:37:49;Fastcharge    ;04.12.2018;FEY;;LION;49;14500;7200;192;59;84;90;8400;3000;4045;4045;1;13015;26.44;27.24;31,6;BCS1388054;4;6
009533;17.12.2019;10:31:06;Stop          ;04.12.2018;FEY;;LION;49;14500;7200;224;59;94;100;8400;;4162;4162;1;13015;27.94;27.64;31,4;BCS1388054;4;6
009533;17.12.2019;13:38:32;Charge to 10% ;04.12.2018;FEY;;LION;49;14500;7200;224;59;94;100;8400;;4149;4148;1;13015;26.74;27.14;30,8;BCS1388054;4;6
009533;17.12.2019;20:34:29;Stop          ;04.12.2018;FEY;;LION;49;14500;7200;192;60;10;10;8400;3000;3361;3362;1;13013;33.44;31.54;34,1;BCS1388054;4;6
009533;18.12.2019;08:31:26;Fastcharge    ;04.12.2018;FEY;;LION;49;14500;7200;192;60;10;10;8400;3000;3371;3371;1;13015;26.64;27.04;31,6;BCS1388054;4;6
009533;18.12.2019;14:29:12;Stop          ;04.12.2018;FEY;;LION;49;14500;7200;224;60;94;100;8400;;4160;4161;1;13015;29.34;28.54;31,9;BCS1388054;4;6
009533;19.12.2019;08:23:58;Charge to 60% ;04.12.2018;FEY;;LION;49;14500;7200;224;60;95;100;8400;;4147;4147;1;13015;26.54;27.24;31,6;BCS1388054;4;6
009533;19.12.2019;11:30:18;Stop          ;04.12.2018;FEY;;LION;49;14500;7200;192;61;57;60;8400;3000;3764;3765;1;13014;33.64;32.04;34,6;BCS1388054;4;6
009533;19.12.2019;12:16:45;Cycle         ;04.12.2018;FEY;;LION;49;14500;7200;192;61;57;60;8400;3000;3773;3774;1;13014;29.84;28.94;32,7;BCS1388054;4;6
009533;20.12.2019;17:30:48;Stop          ;04.12.2018;FEY;;LION;49;14500;7200;224;62;93;100;8400;;4151;4153;1;13014;26.74;26.94;30,6;BCS1388054;4;6
009533;06.01.2020;06:34:50;Charge to 60% ;04.12.2018;FEY;;LION;49;14500;7200;224;62;92;99;8400;;4121;4122;1;13015;26.74;27.34;31,9;BCS1388054;4;6
009533;06.01.2020;09:30:33;Stop          ;04.12.2018;FEY;;LION;49;14500;7200;192;63;56;60;8400;3000;3767;3770;1;13014;32.84;31.24;33,7;BCS1388054;4;6
009533;06.01.2020;09:50:38;Fastcharge    ;04.12.2018;FEY;;LION;49;14500;7200;192;63;56;60;8400;3000;3774;3777;1;13015;31.14;29.84;32,7;BCS1388054;4;6
009533;06.01.2020;13:09:19;Stop          ;04.12.2018;FEY;;LION;49;14500;7200;224;63;93;100;8400;;4157;4158;1;13017;28.94;27.94;31,4;BCS1388054;4;6