File: reader/backup_20220214/Batterieverzeichnis/009539.txt
Serialnumber ; Date ; Time ; Action ; Date of Manufacture ; Manufacturer ; Battery Name ; Device-Chemistry ; Specification-Info ; Design-Capacity [mAh] ; Design-Voltage [mV] ; Battery Status ; Cycle Count ; SOC [%] ; Relativ SOC[%] ; Desired Voltage [mV]; Desired Current [mA]; Cell Voltage 1 [mV] ; Cell Voltage 2 [mV] ; Max_Error [%] ; Busvoltage[mV] ; Battery Temperature [°C] ; Charger Temperature [°C] ; Batterysystem ; Case ; PLace
009539;10.12.2019;15:28:47;Ladung auf 30% ;04.12.2018;FEY;;LION;49;14500;7200;224;47;93;100;8400;;4131;4131;1;13005;22.54;24.24;27,1;BCS1388054;3;7
009539;10.12.2019;20:47:21;Stop           ;04.12.2018;FEY;;LION;49;14500;7200;192;48;29;30;8400;3000;3557;3557;1;13005;34.14;34.64;33,5;BCS1388054;3;7
009539;11.12.2019;08:48:36;Fastcharge    ;04.12.2018;FEY;;LION;49;14500;7200;192;48;29;31;8400;3000;3566;3566;1;13004;26.34;27.94;31,9;BCS1388054;3;7
009539;11.12.2019;13:39:41;Stop           ;04.12.2018;FEY;;LION;49;14500;7200;224;48;95;100;8400;;4161;4162;1;13005;30.74;31.04;32,5;BCS1388054;3;7
009539;11.12.2019;15:46:24;Ladung auf 10% ;04.12.2018;FEY;;LION;49;14500;7200;224;48;96;100;8400;;4153;4153;1;13004;27.34;28.54;31,4;BCS1388054;3;7
009539;11.12.2019;22:48:44;Stop           ;04.12.2018;FEY;;LION;49;14500;7200;192;49;10;10;8400;3000;3352;3353;1;13006;34.94;34.84;33,6;BCS1388054;3;7
009539;12.12.2019;08:44:58;Normalcharge  ;04.12.2018;FEY;;LION;49;14500;7200;192;49;9;10;8400;3000;3362;3362;1;13003;26.54;28.24;31,9;BCS1388054;3;7
009539;12.12.2019;16:39:24;Stop           ;04.12.2018;FEY;;LION;49;14500;7200;224;49;96;100;8400;;4159;4160;1;13005;29.74;30.44;31,7;BCS1388054;3;7
009539;13.12.2019;10:47:57;Ladung auf 10% ;04.12.2018;FEY;;LION;49;14500;7200;224;49;96;100;8400;;4149;4148;1;13004;26.54;28.14;32,0;BCS1388054;3;7
009539;13.12.2019;15:42:18;Stop           ;04.12.2018;FEY;;LION;49;14500;7200;192;50;35;36;8400;3000;3499;3550;1;13542;33.44;39.34;34,6;BCS1388054;3;7
009539;13.12.2019;15:42:20;Cycle          ;04.12.2018;FEY;;LION;49;14500;7200;192;50;35;36;8400;3000;3499;3550;1;13542;33.44;39.24;34,6;BCS1388054;3;7
009539;14.12.2019;22:36:33;Stop           ;04.12.2018;FEY;;LION;49;14500;7200;224;51;93;100;8400;;4153;4152;1;13005;26.74;28.14;31,6;BCS1388054;3;7
009539;16.12.2019;07:43:10;Ladung auf 10% ;04.12.2018;FEY;;LION;49;14500;7200;224;51;92;100;8400;;4147;4146;1;13005;26.34;27.64;31,9;BCS1388054;3;7
009539;16.12.2019;14:34:27;Stop           ;04.12.2018;FEY;;LION;49;14500;7200;192;52;10;10;8400;3000;3366;3366;1;13006;33.24;33.64;32,5;BCS1388054;3;7
009539;16.12.2019;14:44:07;Ladung auf 90% ;04.12.2018;FEY;;LION;49;14500;7200;192;52;10;10;8400;3000;3368;3368;1;13005;32.54;31.84;31,7;BCS1388054;3;7
009539;16.12.2019;20:48:39;Stop           ;04.12.2018;FEY;;LION;49;14500;7200;192;52;84;90;8400;3000;4059;4059;1;13007;32.44;32.84;31,9;BCS1388054;3;7
009539;17.12.2019;08:37:44;Fastcharge    ;04.12.2018;FEY;;LION;49;14500;7200;192;52;85;90;8400;3000;4048;4048;1;13005;26.34;27.84;31,5;BCS1388054;3;7
009539;17.12.2019;10:30:44;Stop           ;04.12.2018;FEY;;LION;49;14500;7200;224;52;95;100;8400;;4160;4160;1;13005;28.34;29.74;31,4;BCS1388054;3;7
009539;17.12.2019;13:38:28;Ladung auf 10% ;04.12.2018;FEY;;LION;49;14500;7200;224;52;95;100;8400;;4150;4150;1;13005;26.74;28.04;30,8;BCS1388054;3;7
009539;17.12.2019;20:32:04;Stop           ;04.12.2018;FEY;;LION;49;14500;7200;192;53;10;10;8400;3000;3363;3363;1;13005;34.94;35.14;34,6;BCS1388054;3;7
009539;18.12.2019;08:31:22;Fastcharge    ;04.12.2018;FEY;;LION;49;14500;7200;192;53;10;10;8400;3000;3372;3373;1;13005;26.44;28.14;31,6;BCS1388054;3;7
009539;18.12.2019;14:26:33;Stop           ;04.12.2018;FEY;;LION;49;14500;7200;224;53;95;100;8400;;4161;4161;1;13007;30.84;31.04;32,5;BCS1388054;3;7
009539;19.12.2019;08:23:54;Ladung auf 60% ;04.12.2018;FEY;;LION;49;14500;7200;224;53;96;100;8400;;4149;4150;1;13006;26.44;27.94;31,6;BCS1388054;3;7
009539;19.12.2019;11:28:29;Stop           ;04.12.2018;FEY;;LION;49;14500;7200;192;54;58;60;8400;3000;3753;3754;1;13006;34.64;38.34;35,1;BCS1388054;3;7
009539;19.12.2019;12:16:41;Cycle          ;04.12.2018;FEY;;LION;49;14500;7200;192;54;58;60;8400;3000;3770;3772;1;13005;31.14;30.74;32,7;BCS1388054;3;7
009539;20.12.2019;17:23:28;Stop           ;04.12.2018;FEY;;LION;49;14500;7200;224;55;93;100;8400;;4153;4153;1;13005;26.94;28.24;31,9;BCS1388054;3;7
009539;06.01.2020;06:34:46;Ladung auf 60% ;04.12.2018;FEY;;LION;49;14500;7200;192;55;92;99;8400;;4123;4122;1;13005;26.54;28.04;31,9;BCS1388054;3;7
009539;06.01.2020;09:29:20;Stop           ;04.12.2018;FEY;;LION;49;14500;7200;192;56;57;60;8400;3000;3752;3753;1;13007;33.84;37.14;34,2;BCS1388054;3;7
009539;06.01.2020;09:50:34;Fastcharge    ;04.12.2018;FEY;;LION;49;14500;7200;192;56;57;60;8400;3000;3768;3770;1;13006;32.34;31.44;32,7;BCS1388054;3;7
009539;06.01.2020;13:06:26;Stop           ;04.12.2018;FEY;;LION;49;14500;7200;224;56;94;100;8400;;4162;4162;1;13006;30.34;30.94;32,1;BCS1388054;3;7