File: reader/backup_20220214/Batterieverzeichnis/009524.txt
Serialnumber ; Date ; Time ; Action ; Date of Manufacture ; Manufacturer ; Battery Name ; Device-Chemistry ; Specification-Info ; Design-Capacity [mAh] ; Design-Voltage [mV] ; Battery Status ; Cycle Count ; SOC [%] ; Relativ SOC[%] ; Desired Voltage [mV]; Desired Current [mA]; Cell Voltage 1 [mV] ; Cell Voltage 2 [mV] ; Max_Error [%] ; Busvoltage[mV] ; Battery Temperature [°C] ; Charger Temperature [°C] ; Batterysystem ; Case ; PLace
009524;10.12.2019;15:28:54;Charge to 30% ;04.12.2018;FEY;;LION;49;14500;7200;224;54;92;100;8400;;4128;4128;1;13020;22.94;24.34;27,1;BCS1388054;4;12
009524;10.12.2019;20:47:57;Stop          ;04.12.2018;FEY;;LION;49;14500;7200;192;55;29;30;8400;3000;3558;3559;1;13019;32.84;30.94;33,4;BCS1388054;4;12
009524;11.12.2019;08:48:41;Fastcharge    ;04.12.2018;FEY;;LION;49;14500;7200;192;55;29;30;8400;3000;3567;3567;1;13019;26.54;27.44;31,9;BCS1388054;4;12
009524;11.12.2019;13:42:44;Stop          ;04.12.2018;FEY;;LION;49;14500;7200;224;55;94;100;8400;;4158;4159;1;13019;29.24;28.44;31,9;BCS1388054;4;12
009524;11.12.2019;15:46:31;Charge to 10% ;04.12.2018;FEY;;LION;49;14500;7200;224;55;95;100;8400;;4151;4151;1;13019;27.24;27.14;31,4;BCS1388054;4;12
009524;11.12.2019;22:50:44;Stop          ;04.12.2018;FEY;;LION;49;14500;7200;192;56;10;10;8400;3000;3353;3354;1;13018;33.14;31.04;33,2;BCS1388054;4;12
009524;12.12.2019;08:45:03;Normalcharge  ;04.12.2018;FEY;;LION;49;14500;7200;192;56;9;10;8400;3000;3362;3363;1;13020;26.74;27.14;31,9;BCS1388054;4;12
009524;12.12.2019;16:41:48;Stop          ;04.12.2018;FEY;;LION;49;14500;7200;224;56;95;100;8400;;4159;4159;1;13018;28.74;28.14;31,5;BCS1388054;4;12
009524;13.12.2019;10:48:01;Charge to 10% ;04.12.2018;FEY;;LION;49;14500;7200;224;56;95;100;8400;;4147;4147;1;13019;26.74;27.74;32,0;BCS1388054;4;12
009524;13.12.2019;15:42:25;Stop          ;04.12.2018;FEY;;LION;49;14500;7200;192;57;34;36;8400;3000;3499;3550;1;13525;32.24;33.74;34,6;BCS1388054;4;12
009524;13.12.2019;15:42:27;Cycle         ;04.12.2018;FEY;;LION;49;14500;7200;192;57;34;36;8400;3000;3499;3550;1;13525;32.24;33.74;34,6;BCS1388054;4;12
009524;14.12.2019;22:44:28;Stop          ;04.12.2018;FEY;;LION;49;14500;7200;224;58;93;99;8400;;4150;4149;1;13018;26.74;27.64;32,0;BCS1388054;4;12
009524;16.12.2019;07:43:14;Charge to 10% ;04.12.2018;FEY;;LION;49;14500;7200;224;58;93;100;8400;;4144;4143;1;13019;26.54;26.74;31,9;BCS1388054;4;12
009524;16.12.2019;14:36:44;Stop          ;04.12.2018;FEY;;LION;49;14500;7200;192;59;10;10;8400;3000;3366;3366;1;13019;31.64;29.94;32,4;BCS1388054;4;12
009524;16.12.2019;14:44:13;Charge to 90% ;04.12.2018;FEY;;LION;49;14500;7200;192;59;10;10;8400;3000;3367;3367;1;13019;31.04;29.24;31,7;BCS1388054;4;12
009524;16.12.2019;20:50:28;Stop          ;04.12.2018;FEY;;LION;49;14500;7200;192;59;84;90;8400;3000;4056;4056;1;13019;30.74;29.14;31,6;BCS1388054;4;12
009524;17.12.2019;08:37:50;Fastcharge    ;04.12.2018;FEY;;LION;49;14500;7200;192;59;84;90;8400;3000;4047;4047;1;13019;26.54;27.44;31,6;BCS1388054;4;12
009524;17.12.2019;10:31:06;Stop          ;04.12.2018;FEY;;LION;49;14500;7200;224;59;94;100;8400;;4161;4162;1;13020;28.04;27.64;31,4;BCS1388054;4;12
009524;17.12.2019;13:38:32;Charge to 10% ;04.12.2018;FEY;;LION;49;14500;7200;224;59;94;100;8400;;4149;4149;1;13020;26.84;27.34;30,8;BCS1388054;4;12
009524;17.12.2019;20:34:29;Stop          ;04.12.2018;FEY;;LION;49;14500;7200;192;60;10;10;8400;3000;3364;3365;1;13018;33.14;31.34;34,1;BCS1388054;4;12
009524;18.12.2019;08:31:26;Fastcharge    ;04.12.2018;FEY;;LION;49;14500;7200;192;60;10;10;8400;3000;3373;3375;1;13019;26.74;26.94;31,6;BCS1388054;4;12
009524;18.12.2019;14:29:12;Stop          ;04.12.2018;FEY;;LION;49;14500;7200;224;60;94;100;8400;;4159;4160;1;13020;29.34;28.54;31,9;BCS1388054;4;12
009524;19.12.2019;08:23:58;Charge to 60% ;04.12.2018;FEY;;LION;49;14500;7200;224;60;95;100;8400;;4147;4148;1;13018;26.64;27.44;31,6;BCS1388054;4;12
009524;19.12.2019;11:30:18;Stop          ;04.12.2018;FEY;;LION;49;14500;7200;192;61;57;60;8400;3000;3766;3768;1;13018;33.54;31.84;34,6;BCS1388054;4;12
009524;19.12.2019;12:16:45;Cycle         ;04.12.2018;FEY;;LION;49;14500;7200;192;61;57;60;8400;3000;3777;3779;1;13019;29.74;29.14;32,7;BCS1388054;4;12
009524;20.12.2019;17:30:48;Stop          ;04.12.2018;FEY;;LION;49;14500;7200;224;62;93;100;8400;;4150;4151;1;13018;26.84;27.14;30,6;BCS1388054;4;12
009524;06.01.2020;06:34:50;Charge to 60% ;04.12.2018;FEY;;LION;49;14500;7200;192;62;92;98;8400;;4121;4121;1;13021;26.84;27.54;31,9;BCS1388054;4;12
009524;06.01.2020;09:30:33;Stop          ;04.12.2018;FEY;;LION;49;14500;7200;192;63;57;60;8400;3000;3772;3772;1;13020;32.64;30.94;33,7;BCS1388054;4;12
009524;06.01.2020;09:50:38;Fastcharge    ;04.12.2018;FEY;;LION;49;14500;7200;192;63;57;60;8400;3000;3779;3780;1;13021;30.74;30.34;32,7;BCS1388054;4;12
009524;06.01.2020;13:09:19;Stop          ;04.12.2018;FEY;;LION;49;14500;7200;224;63;94;100;8400;;4158;4159;1;13019;28.94;27.94;31,4;BCS1388054;4;12