File: reader/backup_20220214/Batterieverzeichnis/009595.txt
Serialnumber ; Date ; Time ; Action ; Date of Manufacture ; Manufacturer ; Battery Name ; Device-Chemistry ; Specification-Info ; Design-Capacity [mAh] ; Design-Voltage [mV] ; Battery Status ; Cycle Count ; SOC [%] ; Relativ SOC[%] ; Desired Voltage [mV]; Desired Current [mA]; Cell Voltage 1 [mV] ; Cell Voltage 2 [mV] ; Max_Error [%] ; Busvoltage[mV] ; Battery Temperature [°C] ; Charger Temperature [°C] ; Batterysystem ; Case ; PLace
009595;07.12.2020;04:14:25;Cycle          ;04.12.2018;FEY;;LION;49;14500;7200;192;2;99;98;8400;;4149;4148;1;13000;25.44;27.44;30,3;BCS1388054;3;9
009595;08.12.2020;16:19:50;Stop           ;04.12.2018;FEY;;LION;49;14500;7200;192;2;100;98;8400;;4147;4146;1;12998;27.74;29.04;31,9;BCS1388054;3;9
009595;12.01.2021;04:17:36;Charge to 90% ;04.12.2018;FEY;;LION;49;14500;7200;192;2;98;97;8400;;4130;4129;1;13017;22.94;24.14;23,6;BCS1388054;5;2
009595;12.01.2021;05:15:37;Stop          ;04.12.2018;FEY;;LION;49;14500;7200;192;2;92;90;8400;3000;4066;4066;1;13012;27.04;30.24;31,6;BCS1388054;5;2
009595;12.01.2021;05:21:53;Cycle         ;04.12.2018;FEY;;LION;49;14500;7200;192;2;92;90;8400;3000;4067;4066;1;13011;27.04;29.44;30,6;BCS1388054;5;2
009595;13.01.2021;08:31:10;Stop          ;04.12.2018;FEY;;LION;49;14500;7200;224;3;98;100;8400;;4156;4155;1;13012;26.94;29.44;31,1;BCS1388054;5;2
009595;21.02.2021;13:43:32;Normalcharge  ;04.12.2018;FEY;;LION;49;14500;7200;192;4;40;41;8400;3000;3603;3602;1;12987;23.14;25.64;27,5;BCS1388054;2;7
009595;21.02.2021;19:27:00;Stop          ;04.12.2018;FEY;;LION;49;14500;7200;224;4;98;100;8400;;4163;4164;1;12988;27.34;29.24;31,1;BCS1388054;2;7
009595;04.04.2021;11:50:02;Normalcharge  ;04.12.2018;FEY;;LION;49;14500;7200;192;5;77;78;8400;3000;3912;3913;1;13005;24.74;26.04;27,7;BCS1388054;6;9
009595;04.04.2021;11:51:24;Stop          ;04.12.2018;FEY;;LION;49;14500;7200;128;5;77;78;8400;3000;4005;3956;1;12668;24.84;28.94;28,5;BCS1388054;6;9
009595;22.08.2021;11:37:25;Normalcharge  ;04.12.2018;FEY;;LION;49;14500;7200;192;5;75;76;8400;3000;3861;3862;1;13005;21.34;29.04;31,9;BCS1388054;4;12
009595;22.08.2021;11:38:13;Stop          ;04.12.2018;FEY;;LION;49;14500;7200;128;5;75;76;8400;3000;3951;3903;1;12616;21.64;30.54;32,1;BCS1388054;4;12
009595;14.10.2021;12:40:13;Normalcharge  ;04.12.2018;FEY;;LION;49;14500;7200;192;5;75;76;8400;3000;3850;3851;1;13017;23.34;26.14;27,9;BCS1388054;5;18
009595;14.10.2021;12:41:50;Stop          ;04.12.2018;FEY;;LION;49;14500;7200;128;5;75;76;8400;3000;3946;3898;1;12632;23.54;29.94;28,5;BCS1388054;5;18
009595;07.02.2022;08:51:04;Normalcharge  ;04.12.2018;FEY;;LION;49;14500;7200;192;5;75;76;8400;3000;3823;3823;1;13016;22.14;23.04;25,1;BCS1388054;3;3