File: reader/backup_20220214/Batterieverzeichnis/009598.txt
Serialnumber ; Date ; Time ; Action ; Date of Manufacture ; Manufacturer ; Battery Name ; Device-Chemistry ; Specification-Info ; Design-Capacity [mAh] ; Design-Voltage [mV] ; Battery Status ; Cycle Count ; SOC [%] ; Relativ SOC[%] ; Desired Voltage [mV]; Desired Current [mA]; Cell Voltage 1 [mV] ; Cell Voltage 2 [mV] ; Max_Error [%] ; Busvoltage[mV] ; Battery Temperature [°C] ; Charger Temperature [°C] ; Batterysystem ; Case ; PLace
009598;07.12.2020;04:14:17;Cycle         ;04.12.2018;FEY;;LION;49;14500;7200;16576;4;99;100;;;4143;4141;1;12995;25.34;26.74;30,3;BCS1388054;1;5
009598;08.12.2020;16:19:38;Stop          ;04.12.2018;FEY;;LION;49;14500;7200;16576;4;99;100;;;4141;4139;1;12995;27.04;27.94;31,9;BCS1388054;1;5
009598;12.01.2021;04:17:40;Charge to 90% ;04.12.2018;FEY;;LION;49;14500;7200;16576;4;98;100;;;4126;4125;1;13015;22.74;24.04;23,6;BCS1388054;6;3
009598;12.01.2021;05:00:55;Stop          ;04.12.2018;FEY;;LION;49;14500;7200;192;4;86;90;8400;3000;4020;4018;1;13009;27.14;33.84;31,2;BCS1388054;6;3
009598;12.01.2021;05:21:57;Cycle         ;04.12.2018;FEY;;LION;49;14500;7200;192;4;86;90;8400;3000;4040;4038;1;13010;26.94;28.84;30,4;BCS1388054;6;3
009598;13.01.2021;08:31:18;Stop          ;04.12.2018;FEY;;LION;49;14500;7200;224;5;96;100;8400;;4155;4155;1;13011;26.54;28.84;31,1;BCS1388054;6;3
009598;21.02.2021;13:45:29;Normalcharge  ;04.12.2018;FEY;;LION;49;14500;7200;192;6;48;50;8400;3000;3665;3665;1;12988;22.44;22.24;27,8;BCS1388054;6;16
009598;06.04.2021;08:38:40;Normalcharge  ;04.12.2018;FEY;;LION;49;14500;7200;224;6;95;99;8400;;4126;4127;1;13011;20.84;25.04;28,1;BCS1388054;1;7
009598;06.04.2021;08:39:29;Stop          ;04.12.2018;FEY;;LION;49;14500;7200;224;6;95;99;8400;;4127;4127;1;13009;20.84;25.44;28,2;BCS1388054;1;7
009598;08.04.2021;07:57:52;Normalcharge  ;04.12.2018;FEY;;LION;49;14500;7200;224;6;95;99;8400;;4126;4126;1;13011;24.94;24.94;26,3;BCS1388054;1;7
009598;08.04.2021;07:59:50;Stop          ;04.12.2018;FEY;;LION;49;14500;7200;224;6;95;99;8400;;4126;4127;1;12958;24.94;25.94;26,8;BCS1388054;1;7
009598;08.04.2021;10:34:35;Normalcharge  ;04.12.2018;FEY;;LION;49;14500;7200;224;6;95;99;8400;;4127;4127;1;13007;26.14;27.64;28,1;BCS1388054;1;7
009598;08.04.2021;10:36:49;Stop          ;04.12.2018;FEY;;LION;49;14500;7200;224;6;95;99;8400;;4127;4127;1;12888;26.14;27.64;28,9;BCS1388054;1;7
009598;18.04.2021;08:33:24;Normalcharge  ;04.12.2018;FEY;;LION;49;14500;7200;224;6;95;99;8400;;4123;4123;1;13010;25.84;26.44;27,7;BCS1388054;1;7
009598;18.04.2021;08:33:29;Stop          ;04.12.2018;FEY;;LION;49;14500;7200;224;6;95;99;8400;;4123;4123;1;13006;25.84;26.44;27,7;BCS1388054;1;7
009598;04.08.2021;07:25:01;Normalcharge  ;04.12.2018;FEY;;LION;49;14500;7200;192;6;92;96;8400;;4091;4091;1;13001;30.24;30.94;31,5;BCS1388054;1;7
009598;04.08.2021;07:25:57;Stop          ;04.12.2018;FEY;;LION;49;14500;7200;192;6;92;96;8400;;4091;4091;1;12794;30.24;31.34;31,9;BCS1388054;1;7
009598;22.08.2021;11:07:51;Normalcharge  ;04.12.2018;FEY;;LION;49;14500;7200;192;6;91;95;8400;3000;4086;4085;1;12994;22.74;31.54;32,0;BCS1388054;1;15
009598;22.08.2021;11:08:24;Stop          ;04.12.2018;FEY;;LION;49;14500;7200;128;6;91;95;8400;3000;4136;4116;1;12585;22.74;32.54;32,4;BCS1388054;1;15
009598;12.10.2021;12:40:28;Normalcharge  ;04.12.2018;FEY;;LION;49;14500;7200;192;6;87;91;8400;3000;4050;4050;1;13033;24.14;26.74;28,8;BCS1388054;7;14
009598;12.10.2021;12:40:39;Stop          ;04.12.2018;FEY;;LION;49;14500;7200;192;6;87;91;8400;3000;4050;4050;1;13025;24.14;26.74;28,9;BCS1388054;7;14
009598;12.10.2021;12:43:08;Normalcharge  ;04.12.2018;FEY;;LION;49;14500;7200;192;6;87;91;8400;3000;4050;4050;1;13032;24.24;26.74;29,2;BCS1388054;7;14
009598;12.10.2021;12:43:28;Stop          ;04.12.2018;FEY;;LION;49;14500;7200;192;6;87;91;8400;3000;4050;4050;1;13025;24.24;27.34;29,2;BCS1388054;7;14
009598;14.10.2021;12:40:08;Normalcharge  ;04.12.2018;FEY;;LION;49;14500;7200;192;6;87;91;8400;3000;4050;4050;1;13004;25.04;26.84;27,9;BCS1388054;4;12
009598;14.10.2021;12:41:44;Stop          ;04.12.2018;FEY;;LION;49;14500;7200;128;6;87;91;8400;3000;4126;4093;1;12654;25.14;28.64;28,4;BCS1388054;4;12