File: reader/backup_20220214/Batterieverzeichnis/009679.txt
Serialnumber ; Date ; Time ; Action ; Date of Manufacture ; Manufacturer ; Battery Name ; Device-Chemistry ; Specification-Info ; Design-Capacity [mAh] ; Design-Voltage [mV] ; Battery Status ; Cycle Count ; SOC [%] ; Relativ SOC[%] ; Desired Voltage [mV]; Desired Current [mA]; Cell Voltage 1 [mV] ; Cell Voltage 2 [mV] ; Max_Error [%] ; Busvoltage[mV] ; Battery Temperature [°C] ; Charger Temperature [°C] ; Batterysystem ; Case ; PLace
009679;10.12.2019;15:28:40;Charge to 30% ;04.12.2018;FEY;;LION;49;14500;7200;224;50;92;99;8400;;4132;4132;1;13008;23.04;23.94;27,1;BCS1388054;2;11
009679;10.12.2019;20:48:37;Stop          ;04.12.2018;FEY;;LION;49;14500;7200;192;50;29;30;8400;3000;3562;3562;1;13006;33.14;31.64;33,2;BCS1388054;2;11
009679;11.12.2019;08:48:24;Fastcharge    ;04.12.2018;FEY;;LION;49;14500;7200;192;50;29;30;8400;3000;3569;3569;1;13007;26.34;26.74;31,9;BCS1388054;2;11
009679;11.12.2019;13:39:47;Stop          ;04.12.2018;FEY;;LION;49;14500;7200;224;50;94;100;8400;;4160;4161;1;13006;29.84;28.94;32,5;BCS1388054;2;11
009679;11.12.2019;15:46:18;Charge to 10% ;04.12.2018;FEY;;LION;49;14500;7200;224;50;95;99;8400;;4152;4152;1;13007;27.14;27.24;31,4;BCS1388054;2;11
009679;11.12.2019;22:49:04;Stop          ;04.12.2018;FEY;;LION;49;14500;7200;192;52;10;10;8400;3000;3353;3352;1;13007;33.94;32.24;33,6;BCS1388054;2;11
009679;12.12.2019;08:44:52;Normalcharge  ;04.12.2018;FEY;;LION;49;14500;7200;192;52;9;10;8400;3000;3362;3362;1;13007;26.54;27.04;31,9;BCS1388054;2;11
009679;12.12.2019;16:40:06;Stop          ;04.12.2018;FEY;;LION;49;14500;7200;224;52;95;100;8400;;4161;4162;1;13007;29.04;28.64;31,7;BCS1388054;2;11
009679;13.12.2019;10:47:50;Charge to 10% ;04.12.2018;FEY;;LION;49;14500;7200;224;52;95;100;8400;;4149;4149;1;13007;26.54;27.14;32,0;BCS1388054;2;11
009679;13.12.2019;15:42:08;Cycle         ;04.12.2018;FEY;;LION;49;14500;7200;192;52;34;36;8400;3000;3499;3550;1;13573;32.94;35.64;34,6;BCS1388054;2;11
009679;13.12.2019;15:42:08;Stop          ;04.12.2018;FEY;;LION;49;14500;7200;192;52;34;36;8400;3000;3499;3550;1;13573;32.94;35.64;34,6;BCS1388054;2;11
009679;14.12.2019;22:48:51;Stop          ;04.12.2018;FEY;;LION;49;14500;7200;224;54;93;99;8400;;4150;4150;1;13008;26.64;27.04;32,0;BCS1388054;2;11
009679;16.12.2019;07:43:06;Charge to 10% ;04.12.2018;FEY;;LION;49;14500;7200;224;54;93;100;8400;;4144;4144;1;13009;26.24;26.44;31,9;BCS1388054;2;11
009679;16.12.2019;14:37:54;Stop          ;04.12.2018;FEY;;LION;49;14500;7200;192;55;10;10;8400;3000;3367;3366;1;13007;32.44;30.74;32,4;BCS1388054;2;11
009679;16.12.2019;14:44:03;Charge to 90% ;04.12.2018;FEY;;LION;49;14500;7200;192;55;10;10;8400;3000;3368;3367;1;13009;31.94;30.04;31,9;BCS1388054;2;11
009679;16.12.2019;20:51:09;Stop          ;04.12.2018;FEY;;LION;49;14500;7200;192;55;84;90;8400;3000;4055;4055;1;13009;31.24;29.74;31,6;BCS1388054;2;11
009679;17.12.2019;08:37:40;Fastcharge    ;04.12.2018;FEY;;LION;49;14500;7200;192;55;84;90;8400;3000;4046;4046;1;13008;26.34;26.74;31,6;BCS1388054;2;11
009679;17.12.2019;10:30:36;Stop          ;04.12.2018;FEY;;LION;49;14500;7200;224;55;94;100;8400;;4162;4164;1;13009;27.94;28.04;31,5;BCS1388054;2;11
009679;17.12.2019;13:38:22;Charge to 10% ;04.12.2018;FEY;;LION;49;14500;7200;224;55;94;100;8400;;4149;4150;1;13009;26.64;26.84;30,8;BCS1388054;2;11
009679;17.12.2019;20:36:00;Stop          ;04.12.2018;FEY;;LION;49;14500;7200;192;56;10;10;8400;3000;3365;3365;1;13007;33.74;31.94;33,6;BCS1388054;2;11
009679;18.12.2019;08:31:17;Fastcharge    ;04.12.2018;FEY;;LION;49;14500;7200;192;56;10;10;8400;3000;3373;3374;1;13009;26.54;26.94;31,6;BCS1388054;2;11
009679;18.12.2019;14:28:27;Stop          ;04.12.2018;FEY;;LION;49;14500;7200;224;56;94;100;8400;;4161;4163;1;13009;29.84;28.94;32,0;BCS1388054;2;11
009679;19.12.2019;08:23:50;Charge to 60% ;04.12.2018;FEY;;LION;49;14500;7200;224;56;95;100;8400;;4148;4150;1;13008;26.34;26.74;31,5;BCS1388054;2;11
009679;19.12.2019;11:32:11;Stop          ;04.12.2018;FEY;;LION;49;14500;7200;192;56;57;60;8400;3000;3769;3771;1;13007;33.74;32.34;34,0;BCS1388054;2;11
009679;19.12.2019;12:16:37;Cycle         ;04.12.2018;FEY;;LION;49;14500;7200;192;56;57;60;8400;3000;3778;3780;1;13008;30.34;29.04;32,7;BCS1388054;2;11
009679;20.12.2019;17:35:47;Stop          ;04.12.2018;FEY;;LION;49;14500;7200;224;58;93;100;8400;;4151;4151;1;13008;26.64;26.74;31,1;BCS1388054;2;11
009679;06.01.2020;06:34:42;Charge to 60% ;04.12.2018;FEY;;LION;49;14500;7200;224;58;92;99;8400;;4122;4121;1;13009;26.44;26.74;31,9;BCS1388054;2;11
009679;06.01.2020;09:32:11;Stop          ;04.12.2018;FEY;;LION;49;14500;7200;192;58;56;60;8400;3000;3771;3770;1;13008;32.94;31.64;33,2;BCS1388054;2;11
009679;06.01.2020;09:50:30;Fastcharge    ;04.12.2018;FEY;;LION;49;14500;7200;192;58;56;60;8400;3000;3777;3777;1;13009;31.54;29.74;32,7;BCS1388054;2;11
009679;06.01.2020;13:08:34;Stop          ;04.12.2018;FEY;;LION;49;14500;7200;224;58;93;100;8400;;4160;4161;1;13010;29.34;28.44;31,6;BCS1388054;2;11