File: reader/backup_20220214/Batterieverzeichnis/009657.txt
Serialnumber ; Date ; Time ; Action ; Date of Manufacture ; Manufacturer ; Battery Name ; Device-Chemistry ; Specification-Info ; Design-Capacity [mAh] ; Design-Voltage [mV] ; Battery Status ; Cycle Count ; SOC [%] ; Relativ SOC[%] ; Desired Voltage [mV]; Desired Current [mA]; Cell Voltage 1 [mV] ; Cell Voltage 2 [mV] ; Max_Error [%] ; Busvoltage[mV] ; Battery Temperature [°C] ; Charger Temperature [°C] ; Batterysystem ; Case ; PLace
009657;07.12.2020;04:14:21;Cycle         ;04.12.2018;FEY;;LION;49;14500;7200;16576;2;98;99;;;4146;4145;1;13000;25.74;28.04;30,3;BCS1388054;2;4
009657;08.12.2020;16:19:44;Stop          ;04.12.2018;FEY;;LION;49;14500;7200;16576;2;98;99;;;4144;4142;1;13001;27.74;29.44;31,9;BCS1388054;2;4
009657;12.01.2021;04:17:33;Charge to 90% ;04.12.2018;FEY;;LION;49;14500;7200;16576;2;97;97;;;4128;4127;1;13013;23.04;23.34;23,6;BCS1388054;4;13
009657;12.01.2021;04:57:16;Stop          ;04.12.2018;FEY;;LION;49;14500;7200;192;2;90;90;8400;3000;4054;4053;1;13008;27.24;30.14;31,6;BCS1388054;4;13
009657;12.01.2021;05:21:49;Cycle         ;04.12.2018;FEY;;LION;49;14500;7200;192;2;90;90;8400;3000;4059;4058;1;13008;27.34;28.24;30,4;BCS1388054;4;13
009657;13.01.2021;08:19:19;Stop          ;04.12.2018;FEY;;LION;49;14500;7200;224;4;98;100;8400;;4156;4153;1;13008;27.24;28.14;30,7;BCS1388054;4;13
009657;21.02.2021;13:43:32;Normalcharge  ;04.12.2018;FEY;;LION;49;14500;7200;224;4;97;99;8400;;4130;4128;1;12993;23.34;24.64;27,5;BCS1388054;2;13
009657;21.02.2021;19:27:00;Stop          ;04.12.2018;FEY;;LION;49;14500;7200;224;4;97;99;8400;;4131;4128;1;12994;26.94;28.14;31,1;BCS1388054;2;13
009657;06.04.2021;08:39:21;Normalcharge  ;04.12.2018;FEY;;LION;49;14500;7200;192;4;95;98;8400;;4114;4113;1;13029;21.34;24.74;28,1;BCS1388054;7;7
009657;06.04.2021;08:40:08;Stop          ;04.12.2018;FEY;;LION;49;14500;7200;192;4;95;98;8400;;4114;4112;1;12955;21.34;25.04;28,5;BCS1388054;7;7
009657;08.04.2021;07:59:03;Normalcharge  ;04.12.2018;FEY;;LION;49;14500;7200;192;4;95;98;8400;;4114;4112;1;13023;25.14;25.04;26,4;BCS1388054;7;7
009657;08.04.2021;07:59:16;Stop          ;04.12.2018;FEY;;LION;49;14500;7200;192;4;95;98;8400;;4114;4112;1;13019;25.14;25.14;26,6;BCS1388054;7;7
009657;08.04.2021;10:36:43;Normalcharge  ;04.12.2018;FEY;;LION;49;14500;7200;192;4;95;98;8400;;4114;4112;1;13028;25.44;26.14;28,9;BCS1388054;7;7
009657;08.04.2021;10:37:15;Stop          ;04.12.2018;FEY;;LION;49;14500;7200;192;4;95;98;8400;;4114;4112;1;12970;25.44;26.34;29,2;BCS1388054;7;7
009657;18.04.2021;08:34:46;Normalcharge  ;04.12.2018;FEY;;LION;49;14500;7200;192;4;95;97;8400;;4111;4109;1;13027;26.04;26.84;28,2;BCS1388054;7;7
009657;18.04.2021;08:34:54;Stop          ;04.12.2018;FEY;;LION;49;14500;7200;192;4;95;97;8400;;4111;4109;1;13024;26.04;26.94;28,4;BCS1388054;7;7
009657;04.08.2021;07:24:29;Normalcharge  ;04.12.2018;FEY;;LION;49;14500;7200;192;4;95;97;8400;;4082;4080;1;13017;30.04;30.14;31,5;BCS1388054;7;7
009657;04.08.2021;07:25:08;Stop          ;04.12.2018;FEY;;LION;49;14500;7200;192;4;95;97;8400;;4082;4080;1;12969;30.04;30.54;31,6;BCS1388054;7;7
009657;14.10.2021;12:39:51;Normalcharge  ;04.12.2018;FEY;;LION;49;14500;7200;192;4;69;71;8400;3000;3855;3854;1;13002;25.24;26.04;27,9;BCS1388054;1;7
009657;14.10.2021;12:41:14;Stop          ;04.12.2018;FEY;;LION;49;14500;7200;128;4;69;71;8400;3000;3947;3897;1;12485;25.34;29.44;28,2;BCS1388054;1;7
009657;07.02.2022;08:51:51;Normalcharge  ;04.12.2018;FEY;;LION;49;14500;7200;192;4;69;71;8400;3000;3828;3826;1;12993;22.34;23.94;25,6;BCS1388054;1;2
009657;07.02.2022;13:16:30;Stop          ;04.12.2018;FEY;;LION;49;14500;7200;224;4;98;100;8400;;4153;4150;1;12990;25.64;27.84;31,2;BCS1388054;1;2