File: reader/backup_20220214/Batterieverzeichnis/009810.txt
Serialnumber ; Date ; Time ; Action ; Date of Manufacture ; Manufacturer ; Battery Name ; Device-Chemistry ; Specification-Info ; Design-Capacity [mAh] ; Design-Voltage [mV] ; Battery Status ; Cycle Count ; SOC [%] ; Relativ SOC[%] ; Desired Voltage [mV]; Desired Current [mA]; Cell Voltage 1 [mV] ; Cell Voltage 2 [mV] ; Max_Error [%] ; Busvoltage[mV] ; Battery Temperature [°C] ; Charger Temperature [°C] ; Batterysystem ; Case ; PLace
009810;07.12.2020;04:14:40;Cycle         ;03.12.2018;FEY;;LION;49;14500;7200;192;1;78;80;8400;3000;3937;3937;1;13024;25.14;26.74;30,3;BCS1388054;7;18
009810;08.12.2020;16:20:20;Stop          ;03.12.2018;FEY;;LION;49;14500;7200;224;2;96;100;8400;;4152;4152;1;13022;26.74;28.14;31,9;BCS1388054;7;18
009810;21.02.2021;13:43:19;Normalcharge  ;03.12.2018;FEY;;LION;49;14500;7200;192;2;94;98;8400;;4118;4118;1;12998;23.04;26.94;27,5;BCS1388054;1;15
009810;22.02.2021;17:08:49;Stop          ;03.12.2018;FEY;;LION;49;14500;7200;192;2;94;98;8400;;4116;4116;1;12996;25.64;28.84;30,0;BCS1388054;1;15
009810;04.04.2021;11:50:33;Normalcharge  ;03.12.2018;FEY;;LION;49;14500;7200;192;3;75;78;8400;3000;3915;3916;1;13001;24.44;25.74;27,9;BCS1388054;2;11
009810;04.04.2021;11:51:48;Stop          ;03.12.2018;FEY;;LION;49;14500;7200;128;3;75;79;8400;3000;4006;3960;1;12582;24.54;28.14;28,6;BCS1388054;2;11
009810;22.08.2021;11:07:55;Normalcharge  ;03.12.2018;FEY;;LION;49;14500;7200;192;3;60;63;8400;3000;3778;3779;1;13005;21.94;30.04;32,0;BCS1388054;2;6
009810;22.08.2021;11:08:28;Stop          ;03.12.2018;FEY;;LION;49;14500;7200;128;3;60;63;8400;3000;3820;3798;1;12622;22.04;30.94;32,4;BCS1388054;2;6
009810;25.08.2021;08:14:57;Charge to 60% ;03.12.2018;FEY;;LION;49;14500;7200;192;3;60;63;8400;3000;3779;3780;1;13006;29.94;32.54;33,2;BCS1388054;6;17
009810;25.08.2021;09:50:39;Stop          ;03.12.2018;FEY;;LION;49;14500;7200;192;3;58;60;8400;3000;3738;3739;1;13006;32.84;35.54;36,4;BCS1388054;6;17
009810;01.11.2021;10:18:21;Normalcharge  ;03.12.2018;FEY;;LION;49;14500;7200;192;3;55;57;8400;3000;3716;3717;1;13011;25.14;25.84;28,4;BCS1388054;4;18
009810;01.11.2021;10:19:03;Stop          ;03.12.2018;FEY;;LION;49;14500;7200;128;3;55;57;8400;3000;3799;3751;1;12557;25.14;27.64;28,2;BCS1388054;4;18
009810;01.11.2021;10:28:22;Normalcharge  ;03.12.2018;FEY;;LION;49;14500;7200;192;3;55;57;8400;3000;3717;3717;1;13011;25.34;26.04;27,9;BCS1388054;4;18
009810;01.11.2021;10:29:09;Stop          ;03.12.2018;FEY;;LION;49;14500;7200;128;3;55;57;8400;3000;3800;3754;1;12552;25.34;28.14;28,5;BCS1388054;4;18
009810;01.11.2021;10:32:29;Charge to 60% ;03.12.2018;FEY;;LION;49;14500;7200;192;3;55;57;8400;3000;3718;3719;1;13010;25.44;26.54;29,7;BCS1388054;4;18
009810;01.11.2021;15:19:33;Stop          ;03.12.2018;FEY;;LION;49;14500;7200;192;3;57;60;8400;3000;3748;3748;1;13010;27.94;28.94;32,7;BCS1388054;4;18
009810;07.02.2022;08:50:52;Normalcharge  ;03.12.2018;FEY;;LION;49;14500;7200;192;3;54;56;8400;3000;3711;3712;1;13004;21.74;21.84;25,0;BCS1388054;5;10
009810;07.02.2022;13:22:36;Stop          ;03.12.2018;FEY;;LION;49;14500;7200;224;3;96;100;8400;;4159;4158;1;12999;26.54;26.04;28,5;BCS1388054;5;10