File: reader/backup_20220214/Batterieverzeichnis/009827.txt
Serialnumber ; Date ; Time ; Action ; Date of Manufacture ; Manufacturer ; Battery Name ; Device-Chemistry ; Specification-Info ; Design-Capacity [mAh] ; Design-Voltage [mV] ; Battery Status ; Cycle Count ; SOC [%] ; Relativ SOC[%] ; Desired Voltage [mV]; Desired Current [mA]; Cell Voltage 1 [mV] ; Cell Voltage 2 [mV] ; Max_Error [%] ; Busvoltage[mV] ; Battery Temperature [°C] ; Charger Temperature [°C] ; Batterysystem ; Case ; PLace
009827;07.12.2020;04:14:32;Cycle         ;04.12.2018;FEY;;LION;49;14500;7200;16576;5;97;98;;;4151;4153;1;13004;25.74;27.64;30,3;BCS1388054;5;4
009827;08.12.2020;16:20:01;Stop          ;04.12.2018;FEY;;LION;49;14500;7200;16576;5;97;98;;;4149;4150;1;13001;27.74;29.04;31,7;BCS1388054;5;4
009827;07.02.2021;08:46:49;Normalcharge  ;04.12.2018;FEY;;LION;49;14500;7200;16576;5;96;97;;;4123;4124;1;13001;23.54;26.04;29,2;BCS1388054;2;8
009827;07.02.2021;11:52:12;Stop          ;04.12.2018;FEY;;LION;49;14500;7200;16576;5;96;97;;;4124;4125;1;13001;25.84;27.54;29,7;BCS1388054;2;8
009827;03.03.2021;08:17:40;Normalcharge  ;04.12.2018;FEY;;LION;49;14500;7200;192;5;69;70;8400;3000;3861;3860;1;13013;23.14;23.84;23,6;BCS1388054;6;11
009827;03.03.2021;11:56:52;Stop          ;04.12.2018;FEY;;LION;49;14500;7200;224;5;99;100;8400;;4156;4159;1;13006;28.14;28.94;31,7;BCS1388054;6;11
009827;06.04.2021;08:38:40;Normalcharge  ;04.12.2018;FEY;;LION;49;14500;7200;224;5;98;99;8400;;4131;4133;1;13009;21.14;25.94;28,1;BCS1388054;1;3
009827;06.04.2021;08:39:29;Stop          ;04.12.2018;FEY;;LION;49;14500;7200;224;5;98;99;8400;;4131;4133;1;13008;21.24;26.54;28,2;BCS1388054;1;3
009827;08.04.2021;07:57:52;Normalcharge  ;04.12.2018;FEY;;LION;49;14500;7200;224;5;98;99;8400;;4131;4133;1;13010;25.24;25.94;26,3;BCS1388054;1;3
009827;08.04.2021;07:59:50;Stop          ;04.12.2018;FEY;;LION;49;14500;7200;224;5;98;99;8400;;4131;4133;1;12952;25.24;27.24;26,8;BCS1388054;1;3
009827;08.04.2021;10:34:34;Normalcharge  ;04.12.2018;FEY;;LION;49;14500;7200;224;5;98;99;8400;;4131;4133;1;13002;26.24;28.44;28,1;BCS1388054;1;3
009827;08.04.2021;10:36:49;Stop          ;04.12.2018;FEY;;LION;49;14500;7200;224;5;98;99;8400;;4131;4133;1;12895;26.24;28.64;28,9;BCS1388054;1;3
009827;18.04.2021;08:33:24;Normalcharge  ;04.12.2018;FEY;;LION;49;14500;7200;224;5;98;99;8400;;4127;4129;1;13006;26.24;27.44;27,7;BCS1388054;1;3
009827;18.04.2021;08:33:29;Stop          ;04.12.2018;FEY;;LION;49;14500;7200;224;5;98;99;8400;;4127;4129;1;13003;26.24;27.54;27,7;BCS1388054;1;3
009827;04.08.2021;07:25:01;Normalcharge  ;04.12.2018;FEY;;LION;49;14500;7200;192;5;95;96;8400;;4094;4095;1;12997;30.54;32.04;31,5;BCS1388054;1;3
009827;04.08.2021;07:25:57;Stop          ;04.12.2018;FEY;;LION;49;14500;7200;192;5;95;96;8400;;4094;4095;1;12793;30.54;32.54;31,9;BCS1388054;1;3
009827;22.08.2021;11:07:59;Normalcharge  ;04.12.2018;FEY;;LION;49;14500;7200;192;6;67;69;8400;3000;3836;3836;1;12995;22.74;29.54;32,1;BCS1388054;3;2
009827;22.08.2021;11:08:33;Stop           ;04.12.2018;FEY;;LION;49;14500;7200;128;6;67;69;8400;3000;3897;3864;1;12711;22.84;30.74;32,4;BCS1388054;3;2
009827;12.10.2021;12:40:28;Normalcharge  ;04.12.2018;FEY;;LION;49;14500;7200;192;6;65;67;8400;3000;3808;3809;1;13025;23.94;28.24;28,8;BCS1388054;7;8
009827;12.10.2021;12:40:39;Stop          ;04.12.2018;FEY;;LION;49;14500;7200;192;6;65;67;8400;3000;3808;3809;1;13020;23.94;28.34;28,9;BCS1388054;7;8
009827;12.10.2021;12:43:08;Normalcharge  ;04.12.2018;FEY;;LION;49;14500;7200;192;6;65;67;8400;3000;3808;3809;1;13025;24.14;28.34;29,2;BCS1388054;7;8
009827;12.10.2021;12:43:28;Stop          ;04.12.2018;FEY;;LION;49;14500;7200;192;6;65;67;8400;3000;3808;3809;1;13019;24.14;28.74;29,2;BCS1388054;7;8
009827;14.10.2021;12:40:17;Normalcharge  ;04.12.2018;FEY;;LION;49;14500;7200;192;6;65;67;8400;3000;3808;3808;1;12996;23.64;27.24;28,1;BCS1388054;6;2
009827;14.10.2021;12:41:58;Stop          ;04.12.2018;FEY;;LION;49;14500;7200;128;6;65;67;8400;3000;3907;3857;1;12653;23.84;31.54;28,5;BCS1388054;6;2
009827;07.02.2022;08:51:04;Normalcharge  ;04.12.2018;FEY;;LION;49;14500;7200;192;6;59;61;8400;3000;3758;3759;1;12999;22.44;23.24;25,1;BCS1388054;3;8