File: reader/backup_20220214/Batterieverzeichnis/009819.txt
Serialnumber ; Date ; Time ; Action ; Date of Manufacture ; Manufacturer ; Battery Name ; Device-Chemistry ; Specification-Info ; Design-Capacity [mAh] ; Design-Voltage [mV] ; Battery Status ; Cycle Count ; SOC [%] ; Relativ SOC[%] ; Desired Voltage [mV]; Desired Current [mA]; Cell Voltage 1 [mV] ; Cell Voltage 2 [mV] ; Max_Error [%] ; Busvoltage[mV] ; Battery Temperature [°C] ; Charger Temperature [°C] ; Batterysystem ; Case ; PLace
009819;10.12.2019;15:28:54;Charge to 30% ;03.12.2018;FEY;;LION;49;14500;7200;224;51;94;99;8400;;4130;4128;1;13015;23.04;25.14;27,1;BCS1388054;4;7
009819;10.12.2019;20:47:57;Stop          ;03.12.2018;FEY;;LION;49;14500;7200;192;52;29;30;8400;3000;3560;3559;1;13014;34.64;34.94;33,4;BCS1388054;4;7
009819;11.12.2019;08:48:41;Fastcharge    ;03.12.2018;FEY;;LION;49;14500;7200;192;52;29;30;8400;3000;3570;3569;1;13015;27.04;29.14;31,9;BCS1388054;4;7
009819;11.12.2019;13:42:44;Stop          ;03.12.2018;FEY;;LION;49;14500;7200;224;52;95;100;8400;;4163;4163;1;13015;31.14;31.34;31,9;BCS1388054;4;7
009819;11.12.2019;15:46:31;Charge to 10% ;03.12.2018;FEY;;LION;49;14500;7200;224;52;97;99;8400;;4155;4154;1;13015;27.84;29.44;31,4;BCS1388054;4;7
009819;11.12.2019;22:50:44;Stop          ;03.12.2018;FEY;;LION;49;14500;7200;192;53;10;10;8400;3000;3360;3359;1;13015;35.34;34.64;33,2;BCS1388054;4;7
009819;12.12.2019;08:45:03;Normalcharge  ;03.12.2018;FEY;;LION;49;14500;7200;192;53;9;10;8400;3000;3369;3368;1;13014;27.24;29.14;31,9;BCS1388054;4;7
009819;12.12.2019;16:41:48;Stop          ;03.12.2018;FEY;;LION;49;14500;7200;224;53;97;100;8400;;4161;4164;1;13015;30.24;30.84;31,5;BCS1388054;4;7
009819;13.12.2019;10:48:01;Charge to 10% ;03.12.2018;FEY;;LION;49;14500;7200;224;53;96;100;8400;;4149;4151;1;13013;27.24;29.34;32,0;BCS1388054;4;7
009819;13.12.2019;15:42:25;Stop          ;03.12.2018;FEY;;LION;49;14500;7200;192;54;35;36;8400;3000;3504;3556;1;13507;33.94;40.04;34,6;BCS1388054;4;7
009819;13.12.2019;15:42:27;Cycle         ;03.12.2018;FEY;;LION;49;14500;7200;192;54;35;36;8400;3000;3504;3556;1;13507;33.94;40.04;34,6;BCS1388054;4;7
009819;14.12.2019;22:44:28;Stop          ;03.12.2018;FEY;;LION;49;14500;7200;224;55;94;100;8400;;4152;4150;1;13014;27.34;29.24;32,0;BCS1388054;4;7
009819;16.12.2019;07:43:14;Charge to 10% ;03.12.2018;FEY;;LION;49;14500;7200;224;55;94;100;8400;;4146;4144;1;13015;27.04;28.74;31,9;BCS1388054;4;7
009819;16.12.2019;14:36:44;Stop          ;03.12.2018;FEY;;LION;49;14500;7200;192;57;10;10;8400;3000;3366;3365;1;13015;33.84;33.64;32,4;BCS1388054;4;7
009819;16.12.2019;14:44:13;Charge to 90% ;03.12.2018;FEY;;LION;49;14500;7200;192;57;10;10;8400;3000;3369;3367;1;13014;33.14;32.04;31,7;BCS1388054;4;7
009819;16.12.2019;20:50:27;Stop          ;03.12.2018;FEY;;LION;49;14500;7200;192;57;85;90;8400;3000;4059;4059;1;13016;33.04;32.84;31,6;BCS1388054;4;7
009819;17.12.2019;08:37:49;Fastcharge    ;03.12.2018;FEY;;LION;49;14500;7200;192;57;85;90;8400;3000;4046;4047;1;13014;27.14;29.04;31,6;BCS1388054;4;7
009819;17.12.2019;10:31:06;Stop          ;03.12.2018;FEY;;LION;49;14500;7200;224;57;95;100;8400;;4162;4163;1;13015;29.04;30.64;31,4;BCS1388054;4;7
009819;17.12.2019;13:38:32;Charge to 10% ;03.12.2018;FEY;;LION;49;14500;7200;224;57;95;100;8400;;4151;4151;1;13015;27.44;28.94;30,8;BCS1388054;4;7
009819;17.12.2019;20:34:29;Stop          ;03.12.2018;FEY;;LION;49;14500;7200;192;58;10;10;8400;3000;3365;3364;1;13013;35.54;35.14;34,1;BCS1388054;4;7
009819;18.12.2019;08:31:26;Fastcharge    ;03.12.2018;FEY;;LION;49;14500;7200;192;58;10;11;8400;3000;3375;3375;1;13015;27.14;29.04;31,6;BCS1388054;4;7
009819;18.12.2019;14:29:12;Stop          ;03.12.2018;FEY;;LION;49;14500;7200;224;58;95;100;8400;;4162;4164;1;13015;31.14;31.54;31,9;BCS1388054;4;7
009819;19.12.2019;08:23:58;Charge to 60% ;03.12.2018;FEY;;LION;49;14500;7200;224;58;96;100;8400;;4149;4151;1;13014;27.14;29.04;31,6;BCS1388054;4;7
009819;19.12.2019;11:30:18;Stop          ;03.12.2018;FEY;;LION;49;14500;7200;192;58;58;60;8400;3000;3767;3768;1;13013;35.24;36.74;34,6;BCS1388054;4;7
009819;19.12.2019;12:16:45;Cycle         ;03.12.2018;FEY;;LION;49;14500;7200;192;58;58;60;8400;3000;3781;3783;1;13014;31.54;31.64;32,7;BCS1388054;4;7
009819;20.12.2019;17:30:48;Stop          ;03.12.2018;FEY;;LION;49;14500;7200;224;59;95;100;8400;;4152;4152;1;13015;27.54;28.84;30,6;BCS1388054;4;7
009819;06.01.2020;06:34:50;Charge to 60% ;03.12.2018;FEY;;LION;49;14500;7200;192;59;93;98;8400;;4122;4123;1;13015;27.34;29.24;31,9;BCS1388054;4;7
009819;06.01.2020;09:30:33;Stop          ;03.12.2018;FEY;;LION;49;14500;7200;192;59;57;60;8400;3000;3771;3771;1;13015;34.34;35.64;33,7;BCS1388054;4;7
009819;06.01.2020;09:50:38;Fastcharge    ;03.12.2018;FEY;;LION;49;14500;7200;192;59;57;60;8400;3000;3782;3783;1;13016;32.74;32.24;32,7;BCS1388054;4;7
009819;06.01.2020;13:09:19;Stop          ;03.12.2018;FEY;;LION;49;14500;7200;224;59;95;100;8400;;4159;4160;1;13016;30.64;30.94;31,4;BCS1388054;4;7