File: reader/backup_20220214/Batterieverzeichnis/009838.txt
Serialnumber ; Date ; Time ; Action ; Date of Manufacture ; Manufacturer ; Battery Name ; Device-Chemistry ; Specification-Info ; Design-Capacity [mAh] ; Design-Voltage [mV] ; Battery Status ; Cycle Count ; SOC [%] ; Relativ SOC[%] ; Desired Voltage [mV]; Desired Current [mA]; Cell Voltage 1 [mV] ; Cell Voltage 2 [mV] ; Max_Error [%] ; Busvoltage[mV] ; Battery Temperature [°C] ; Charger Temperature [°C] ; Batterysystem ; Case ; PLace
009838;07.12.2020;04:14:21;Cycle         ;04.12.2018;FEY;;LION;49;14500;7200;224;2;98;99;8400;;4147;4148;1;12996;25.84;26.64;30,3;BCS1388054;2;11
009838;08.12.2020;16:19:44;Stop          ;04.12.2018;FEY;;LION;49;14500;7200;224;4;97;100;8400;;4153;4156;1;12998;27.74;28.04;31,9;BCS1388054;2;11
009838;03.03.2021;08:17:40;Normalcharge  ;04.12.2018;FEY;;LION;49;14500;7200;192;4;69;71;8400;3000;3863;3865;1;13000;23.24;23.74;23,6;BCS1388054;6;10
009838;03.03.2021;11:56:52;Stop          ;04.12.2018;FEY;;LION;49;14500;7200;224;4;97;100;8400;;4158;4160;1;12992;28.64;29.34;31,7;BCS1388054;6;10
009838;06.04.2021;08:38:40;Normalcharge  ;04.12.2018;FEY;;LION;49;14500;7200;224;4;96;99;8400;;4133;4135;1;12999;21.34;25.04;28,1;BCS1388054;1;4
009838;06.04.2021;08:39:29;Stop          ;04.12.2018;FEY;;LION;49;14500;7200;224;4;96;99;8400;;4133;4135;1;12998;21.44;25.44;28,2;BCS1388054;1;4
009838;08.04.2021;07:57:52;Normalcharge  ;04.12.2018;FEY;;LION;49;14500;7200;224;4;96;99;8400;;4132;4134;1;13000;25.34;25.04;26,3;BCS1388054;1;4
009838;08.04.2021;07:59:50;Stop          ;04.12.2018;FEY;;LION;49;14500;7200;224;4;96;99;8400;;4133;4134;1;12944;25.34;26.04;26,8;BCS1388054;1;4
009838;08.04.2021;10:34:34;Normalcharge  ;04.12.2018;FEY;;LION;49;14500;7200;224;4;96;99;8400;;4133;4134;1;12995;26.24;27.04;28,1;BCS1388054;1;4
009838;08.04.2021;10:36:49;Stop          ;04.12.2018;FEY;;LION;49;14500;7200;224;4;96;99;8400;;4133;4134;1;12886;26.24;27.14;28,9;BCS1388054;1;4
009838;18.04.2021;08:33:24;Normalcharge  ;04.12.2018;FEY;;LION;49;14500;7200;224;4;95;99;8400;;4128;4130;1;12992;26.24;26.44;27,7;BCS1388054;1;4
009838;18.04.2021;08:33:29;Stop          ;04.12.2018;FEY;;LION;49;14500;7200;224;4;95;99;8400;;4128;4130;1;12990;26.24;26.54;27,7;BCS1388054;1;4
009838;04.08.2021;07:25:01;Normalcharge  ;04.12.2018;FEY;;LION;49;14500;7200;192;4;93;96;8400;;4094;4095;1;12989;30.64;30.94;31,5;BCS1388054;1;4
009838;04.08.2021;07:25:57;Stop          ;04.12.2018;FEY;;LION;49;14500;7200;192;4;93;96;8400;;4094;4095;1;12783;30.64;31.24;31,9;BCS1388054;1;4
009838;22.08.2021;11:07:59;Normalcharge  ;04.12.2018;FEY;;LION;49;14500;7200;192;4;69;72;8400;3000;3862;3864;1;12997;22.74;29.34;32,1;BCS1388054;3;7
009838;22.08.2021;11:08:33;Stop           ;04.12.2018;FEY;;LION;49;14500;7200;128;4;69;72;8400;3000;3921;3892;1;12693;22.84;30.44;32,4;BCS1388054;3;7
009838;12.10.2021;12:58:56;Normalcharge  ;04.12.2018;FEY;;LION;49;14500;7200;192;4;69;72;8400;3000;3852;3854;1;12983;23.54;26.14;28,5;BCS1388054;6;16
009838;12.10.2021;12:59:25;Stop          ;04.12.2018;FEY;;LION;49;14500;7200;192;4;69;72;8400;3000;3852;3854;1;12942;23.54;27.14;28,6;BCS1388054;6;16
009838;14.10.2021;12:40:17;Normalcharge  ;04.12.2018;FEY;;LION;49;14500;7200;192;4;69;72;8400;3000;3852;3854;1;12997;23.94;25.94;28,1;BCS1388054;6;1
009838;14.10.2021;12:41:58;Stop          ;04.12.2018;FEY;;LION;49;14500;7200;128;4;70;72;8400;3000;3944;3900;1;12657;24.14;29.94;28,5;BCS1388054;6;1
009838;07.02.2022;08:51:04;Normalcharge  ;04.12.2018;FEY;;LION;49;14500;7200;192;4;70;72;8400;3000;3825;3827;1;12999;22.44;22.04;25,1;BCS1388054;3;6