File: reader/backup_20220214/Batterieverzeichnis/009817.txt
Serialnumber ; Date ; Time ; Action ; Date of Manufacture ; Manufacturer ; Battery Name ; Device-Chemistry ; Specification-Info ; Design-Capacity [mAh] ; Design-Voltage [mV] ; Battery Status ; Cycle Count ; SOC [%] ; Relativ SOC[%] ; Desired Voltage [mV]; Desired Current [mA]; Cell Voltage 1 [mV] ; Cell Voltage 2 [mV] ; Max_Error [%] ; Busvoltage[mV] ; Battery Temperature [°C] ; Charger Temperature [°C] ; Batterysystem ; Case ; PLace
009817;10.12.2019;15:28:40;Charge to 30% ;03.12.2018;FEY;;LION;49;14500;7200;224;51;94;99;8400;;4131;4131;1;13017;22.94;24.64;27,1;BCS1388054;2;9
009817;10.12.2019;20:48:37;Stop          ;03.12.2018;FEY;;LION;49;14500;7200;192;52;29;30;8400;3000;3556;3555;1;13016;34.14;34.04;33,2;BCS1388054;2;9
009817;11.12.2019;08:48:24;Fastcharge    ;03.12.2018;FEY;;LION;49;14500;7200;192;52;29;31;8400;3000;3568;3567;1;13016;26.44;27.84;31,9;BCS1388054;2;9
009817;11.12.2019;13:39:47;Stop          ;03.12.2018;FEY;;LION;49;14500;7200;224;52;96;100;8400;;4162;4162;1;13016;30.94;30.44;32,5;BCS1388054;2;9
009817;11.12.2019;15:46:18;Charge to 10% ;03.12.2018;FEY;;LION;49;14500;7200;224;52;97;100;8400;;4153;4154;1;13016;27.44;28.44;31,4;BCS1388054;2;9
009817;11.12.2019;22:49:04;Stop          ;03.12.2018;FEY;;LION;49;14500;7200;192;53;10;10;8400;3000;3349;3349;1;13015;35.14;35.34;33,6;BCS1388054;2;9
009817;12.12.2019;08:44:52;Normalcharge  ;03.12.2018;FEY;;LION;49;14500;7200;192;53;9;10;8400;3000;3364;3364;1;13017;26.64;28.14;31,9;BCS1388054;2;9
009817;12.12.2019;16:40:06;Stop          ;03.12.2018;FEY;;LION;49;14500;7200;224;53;97;100;8400;;4162;4162;1;13016;29.84;30.04;31,7;BCS1388054;2;9
009817;13.12.2019;10:47:50;Charge to 10% ;03.12.2018;FEY;;LION;49;14500;7200;224;53;97;100;8400;;4149;4149;1;13016;26.64;28.14;32,0;BCS1388054;2;9
009817;13.12.2019;15:42:08;Cycle         ;03.12.2018;FEY;;LION;49;14500;7200;192;54;36;37;8400;3000;3507;3557;1;13581;33.74;37.94;34,6;BCS1388054;2;9
009817;13.12.2019;15:42:08;Stop          ;03.12.2018;FEY;;LION;49;14500;7200;192;54;36;37;8400;3000;3507;3557;1;13581;33.74;37.94;34,6;BCS1388054;2;9
009817;14.12.2019;22:48:51;Stop          ;03.12.2018;FEY;;LION;49;14500;7200;224;55;95;100;8400;;4152;4152;1;13016;26.94;28.14;32,0;BCS1388054;2;9
009817;16.12.2019;07:43:06;Charge to 10% ;03.12.2018;FEY;;LION;49;14500;7200;224;55;95;100;8400;;4146;4146;1;13017;26.34;27.44;31,9;BCS1388054;2;9
009817;16.12.2019;14:37:54;Stop          ;03.12.2018;FEY;;LION;49;14500;7200;192;57;10;10;8400;3000;3266;3316;1;13015;33.74;35.84;32,4;BCS1388054;2;9
009817;16.12.2019;14:44:03;Charge to 90% ;03.12.2018;FEY;;LION;49;14500;7200;192;57;10;10;8400;3000;3361;3361;1;13016;33.34;31.54;31,9;BCS1388054;2;9
009817;16.12.2019;20:51:09;Stop          ;03.12.2018;FEY;;LION;49;14500;7200;128;57;86;90;8400;3000;4150;4100;1;13018;32.64;35.04;31,6;BCS1388054;2;9
009817;17.12.2019;08:37:40;Fastcharge    ;03.12.2018;FEY;;LION;49;14500;7200;192;57;86;90;8400;3000;4045;4045;1;13016;26.44;27.74;31,6;BCS1388054;2;9
009817;17.12.2019;10:30:36;Stop          ;03.12.2018;FEY;;LION;49;14500;7200;224;57;96;100;8400;;4161;4160;1;13017;28.24;29.34;31,5;BCS1388054;2;9
009817;17.12.2019;13:38:22;Charge to 10% ;03.12.2018;FEY;;LION;49;14500;7200;224;57;96;100;8400;;4150;4148;1;13016;26.84;27.94;30,8;BCS1388054;2;9
009817;17.12.2019;20:36:00;Stop          ;03.12.2018;FEY;;LION;49;14500;7200;192;58;10;10;8400;3000;3263;3312;1;13016;35.14;37.34;33,6;BCS1388054;2;9
009817;18.12.2019;08:31:17;Fastcharge    ;03.12.2018;FEY;;LION;49;14500;7200;192;58;10;10;8400;3000;3368;3367;1;13017;26.54;27.94;31,6;BCS1388054;2;9
009817;18.12.2019;14:28:27;Stop          ;03.12.2018;FEY;;LION;49;14500;7200;224;58;96;100;8400;;4164;4162;1;13017;31.04;30.64;32,0;BCS1388054;2;9
009817;19.12.2019;08:23:50;Charge to 60% ;03.12.2018;FEY;;LION;49;14500;7200;224;58;97;100;8400;;4149;4147;1;13017;26.44;27.84;31,5;BCS1388054;2;9
009817;19.12.2019;11:32:11;Stop          ;03.12.2018;FEY;;LION;49;14500;7200;192;58;58;60;8400;3000;3674;3723;1;13016;34.64;37.64;34,0;BCS1388054;2;9
009817;19.12.2019;12:16:37;Cycle         ;03.12.2018;FEY;;LION;49;14500;7200;192;58;58;60;8400;3000;3775;3774;1;13017;31.44;30.34;32,7;BCS1388054;2;9
009817;20.12.2019;17:35:47;Stop          ;03.12.2018;FEY;;LION;49;14500;7200;224;59;95;100;8400;;4152;4150;1;13017;26.94;27.84;31,1;BCS1388054;2;9
009817;06.01.2020;06:34:42;Charge to 60% ;03.12.2018;FEY;;LION;49;14500;7200;224;59;94;99;8400;;4122;4120;1;13018;26.54;27.74;31,9;BCS1388054;2;9
009817;06.01.2020;09:32:11;Stop          ;03.12.2018;FEY;;LION;49;14500;7200;192;59;58;60;8400;3000;3775;3775;1;13017;33.64;33.44;33,2;BCS1388054;2;9
009817;06.01.2020;09:50:30;Fastcharge    ;03.12.2018;FEY;;LION;49;14500;7200;192;59;58;60;8400;3000;3783;3783;1;13018;32.34;31.04;32,7;BCS1388054;2;9
009817;06.01.2020;13:08:34;Stop          ;03.12.2018;FEY;;LION;49;14500;7200;224;59;96;100;8400;;4161;4161;1;13019;30.44;29.84;31,6;BCS1388054;2;9