File: reader/backup_20220209/Batterieverzeichnis/001019.txt
Serialnumber ; Date ; Time ; Action ; Date of Manufacture ; Manufacturer ; Battery Name ; Device-Chemistry ; Specification-Info ; Design-Capacity [mAh] ; Design-Voltage [mV] ; Battery Status ; Cycle Count ; SOC [%] ; Relativ SOC[%] ; Desired Voltage [mV]; Desired Current [mA]; Cell Voltage 1 [mV] ; Cell Voltage 2 [mV] ; Max_Error [%] ; Busvoltage[mV] ; Battery Temperature [°C] ; Charger Temperature [°C] ; Batterysystem ; Case ; PLace
001019;10.12.2019;15:29:15;Charge to 30% ;28.11.2017;FEY;;LION;49;14500;7200;224;36;91;99;8400;;4120;4120;1;13027;21.94;23.74;27,1;BCS1388054;7;11
001019;10.12.2019;20:46:56;Stop          ;28.11.2017;FEY;;LION;49;14500;7200;192;36;28;30;8400;3000;3558;3558;1;13024;31.04;30.14;33,5;BCS1388054;7;11
001019;11.12.2019;08:49:12;Fastcharge    ;28.11.2017;FEY;;LION;49;14500;7200;192;36;28;30;8400;3000;3564;3564;1;13024;25.34;26.44;31,9;BCS1388054;7;11
001019;11.12.2019;13:38:42;Stop          ;28.11.2017;FEY;;LION;49;14500;7200;224;36;92;100;8400;;4157;4158;1;13023;28.24;28.24;32,7;BCS1388054;7;11
001019;11.12.2019;15:46:56;Charge to 10% ;28.11.2017;FEY;;LION;49;14500;7200;224;36;93;100;8400;;4152;4152;1;13024;26.04;26.54;31,2;BCS1388054;7;11
001019;11.12.2019;22:51:50;Stop          ;28.11.2017;FEY;;LION;49;14500;7200;192;38;10;10;8400;3000;3356;3357;1;13024;31.34;30.04;33,0;BCS1388054;7;11
001019;12.12.2019;08:45:27;Normalcharge  ;28.11.2017;FEY;;LION;49;14500;7200;192;38;9;9;8400;3000;3364;3365;1;13023;25.54;26.44;31,7;BCS1388054;7;11
001019;12.12.2019;16:41:08;Stop          ;28.11.2017;FEY;;LION;49;14500;7200;224;38;93;100;8400;;4157;4157;1;13023;27.64;27.54;31,6;BCS1388054;7;11
001019;13.12.2019;10:48:13;Charge to 10% ;28.11.2017;FEY;;LION;49;14500;7200;224;38;93;100;8400;;4148;4148;1;13023;25.54;26.64;32,0;BCS1388054;7;11
001019;13.12.2019;13:48:48;Stop          ;28.11.2017;FEY;;LION;49;14500;7200;192;38;55;60;8400;3000;3664;3716;1;13536;32.54;36.64;36,8;BCS1388054;7;11
001019;16.12.2019;07:43:27;Charge to 10% ;28.11.2017;FEY;;LION;49;14500;7200;192;38;55;60;8400;3000;3766;3767;1;13022;22.24;27.84;31,7;BCS1388054;6;17
001019;16.12.2019;14:43:10;Stop          ;28.11.2017;FEY;;LION;49;14500;7200;192;39;9;10;8400;3000;3365;3366;1;13021;29.24;31.64;31,7;BCS1388054;6;17
001019;16.12.2019;14:44:21;Charge to 90% ;28.11.2017;FEY;;LION;49;14500;7200;192;39;9;10;8400;3000;3365;3366;1;13022;29.24;31.44;31,9;BCS1388054;6;17
001019;16.12.2019;20:54:26;Stop          ;28.11.2017;FEY;;LION;49;14500;7200;192;39;82;90;8400;3000;4047;4047;1;13023;30.74;32.44;32,1;BCS1388054;6;17
001019;17.12.2019;08:37:58;Fastcharge    ;28.11.2017;FEY;;LION;49;14500;7200;192;39;83;90;8400;3000;4041;4041;1;13022;25.84;28.64;31,6;BCS1388054;6;17
001019;17.12.2019;13:38:40;Charge to 10% ;28.11.2017;FEY;;LION;49;14500;7200;224;39;92;100;8400;;4150;4150;1;13021;26.14;28.74;30,8;BCS1388054;6;17
001019;17.12.2019;20:41:41;Stop          ;28.11.2017;FEY;;LION;49;14500;7200;192;40;10;10;8400;3000;3360;3361;1;13020;32.64;34.34;32,6;BCS1388054;6;17
001019;18.12.2019;08:31:34;Fastcharge    ;28.11.2017;FEY;;LION;49;14500;7200;192;40;9;9;8400;3000;3368;3368;1;13022;25.94;28.84;31,6;BCS1388054;6;17
001019;18.12.2019;14:33:31;Stop          ;28.11.2017;FEY;;LION;49;14500;7200;224;40;91;100;8400;;4158;4157;1;13022;29.44;30.74;31,4;BCS1388054;6;17
001019;19.12.2019;08:24:06;Charge to 60% ;28.11.2017;FEY;;LION;49;14500;7200;224;40;92;100;8400;;4149;4149;1;13021;25.84;28.64;31,5;BCS1388054;6;17
001019;19.12.2019;11:34:24;Stop          ;28.11.2017;FEY;;LION;49;14500;7200;192;40;56;60;8400;3000;3772;3771;1;13021;32.64;34.14;33,5;BCS1388054;6;17
001019;19.12.2019;12:16:53;Cycle         ;28.11.2017;FEY;;LION;49;14500;7200;192;40;56;60;8400;3000;3777;3776;1;13021;29.84;30.94;32,7;BCS1388054;6;17
001019;20.12.2019;17:31:05;Stop          ;28.11.2017;FEY;;LION;49;14500;7200;224;41;91;100;8400;;4152;4152;1;13021;26.24;28.64;30,6;BCS1388054;6;17
001019;06.01.2020;06:34:58;Charge to 60% ;28.11.2017;FEY;;LION;49;14500;7200;192;41;90;98;8400;;4123;4123;1;13023;26.04;28.84;31,9;BCS1388054;6;17
001019;06.01.2020;09:30:42;Stop          ;28.11.2017;FEY;;LION;49;14500;7200;192;41;55;60;8400;3000;3768;3769;1;13023;32.04;34.44;33,7;BCS1388054;6;17
001019;06.01.2020;09:50:46;Fastcharge    ;28.11.2017;FEY;;LION;49;14500;7200;192;41;55;60;8400;3000;3774;3775;1;13022;30.74;31.54;32,7;BCS1388054;6;17
001019;06.01.2020;13:06:22;Stop          ;28.11.2017;FEY;;LION;49;14500;7200;224;41;92;100;8400;;4158;4159;1;13024;29.24;30.84;32,1;BCS1388054;6;17