File: reader/backup_20220209/Batterieverzeichnis/009531.txt
Serialnumber ; Date ; Time ; Action ; Date of Manufacture ; Manufacturer ; Battery Name ; Device-Chemistry ; Specification-Info ; Design-Capacity [mAh] ; Design-Voltage [mV] ; Battery Status ; Cycle Count ; SOC [%] ; Relativ SOC[%] ; Desired Voltage [mV]; Desired Current [mA]; Cell Voltage 1 [mV] ; Cell Voltage 2 [mV] ; Max_Error [%] ; Busvoltage[mV] ; Battery Temperature [°C] ; Charger Temperature [°C] ; Batterysystem ; Case ; PLace
009531;10.12.2019;15:28:48;Ladung auf 30% ;04.12.2018;FEY;;LION;49;14500;7200;224;49;93;99;8400;;4131;4130;1;13015;22.84;24.34;27,1;BCS1388054;3;15
009531;10.12.2019;20:47:21;Stop           ;04.12.2018;FEY;;LION;49;14500;7200;192;49;29;30;8400;3000;3560;3560;1;13015;34.54;35.24;33,5;BCS1388054;3;15
009531;11.12.2019;08:48:36;Fastcharge    ;04.12.2018;FEY;;LION;49;14500;7200;192;49;29;30;8400;3000;3569;3569;1;13014;26.64;28.14;31,9;BCS1388054;3;15
009531;11.12.2019;13:39:41;Stop           ;04.12.2018;FEY;;LION;49;14500;7200;224;49;95;100;8400;;4161;4161;1;13014;31.24;31.44;32,5;BCS1388054;3;15
009531;11.12.2019;15:46:24;Ladung auf 10% ;04.12.2018;FEY;;LION;49;14500;7200;224;49;96;100;8400;;4153;4152;1;13014;27.64;28.74;31,4;BCS1388054;3;15
009531;11.12.2019;22:48:44;Stop           ;04.12.2018;FEY;;LION;49;14500;7200;192;51;10;10;8400;3000;3357;3357;1;13014;35.44;35.24;33,6;BCS1388054;3;15
009531;12.12.2019;08:44:58;Normalcharge  ;04.12.2018;FEY;;LION;49;14500;7200;192;51;9;10;8400;3000;3367;3367;1;13014;26.74;28.34;31,9;BCS1388054;3;15
009531;12.12.2019;16:39:24;Stop           ;04.12.2018;FEY;;LION;49;14500;7200;224;51;96;100;8400;;4161;4161;1;13015;30.14;30.74;31,7;BCS1388054;3;15
009531;13.12.2019;10:47:57;Ladung auf 10% ;04.12.2018;FEY;;LION;49;14500;7200;224;51;95;99;8400;;4149;4148;1;13014;26.84;28.34;32,0;BCS1388054;3;15
009531;13.12.2019;15:42:18;Stop           ;04.12.2018;FEY;;LION;49;14500;7200;192;51;34;36;8400;3000;3500;3552;1;13561;34.14;40.84;34,6;BCS1388054;3;15
009531;13.12.2019;15:42:20;Cycle          ;04.12.2018;FEY;;LION;49;14500;7200;192;51;34;36;8400;3000;3500;3552;1;13012;34.14;40.84;34,6;BCS1388054;3;15
009531;14.12.2019;22:36:33;Stop           ;04.12.2018;FEY;;LION;49;14500;7200;224;53;94;99;8400;;4152;4151;1;13015;27.04;28.24;31,6;BCS1388054;3;15
009531;16.12.2019;07:43:10;Ladung auf 10% ;04.12.2018;FEY;;LION;49;14500;7200;224;53;94;100;8400;;4146;4146;1;13015;26.54;27.74;31,9;BCS1388054;3;15
009531;16.12.2019;14:34:27;Stop           ;04.12.2018;FEY;;LION;49;14500;7200;192;54;10;10;8400;3000;3363;3363;1;13014;34.14;35.04;32,5;BCS1388054;3;15
009531;16.12.2019;14:44:07;Ladung auf 90% ;04.12.2018;FEY;;LION;49;14500;7200;192;54;10;10;8400;3000;3366;3366;1;13014;33.24;32.34;31,7;BCS1388054;3;15
009531;16.12.2019;20:48:39;Stop           ;04.12.2018;FEY;;LION;49;14500;7200;192;54;84;90;8400;3000;4056;4058;1;13015;33.04;33.94;31,9;BCS1388054;3;15
009531;17.12.2019;08:37:45;Fastcharge    ;04.12.2018;FEY;;LION;49;14500;7200;192;54;84;90;8400;3000;4045;4046;1;13015;26.64;28.04;31,5;BCS1388054;3;15
009531;17.12.2019;10:30:44;Stop           ;04.12.2018;FEY;;LION;49;14500;7200;224;54;95;100;8400;;4162;4163;1;13016;28.64;30.64;31,4;BCS1388054;3;15
009531;17.12.2019;13:38:28;Ladung auf 10% ;04.12.2018;FEY;;LION;49;14500;7200;224;54;95;100;8400;;4149;4150;1;13015;27.04;28.34;30,8;BCS1388054;3;15
009531;17.12.2019;20:32:04;Stop           ;04.12.2018;FEY;;LION;49;14500;7200;192;55;10;10;8400;3000;3360;3361;1;13013;35.64;36.44;34,6;BCS1388054;3;15
009531;18.12.2019;08:31:22;Fastcharge    ;04.12.2018;FEY;;LION;49;14500;7200;192;55;10;10;8400;3000;3371;3373;1;13015;26.74;28.34;31,6;BCS1388054;3;15
009531;18.12.2019;14:26:33;Stop           ;04.12.2018;FEY;;LION;49;14500;7200;224;55;94;100;8400;;4162;4164;1;13015;31.34;31.54;32,5;BCS1388054;3;15
009531;19.12.2019;08:23:54;Ladung auf 60% ;04.12.2018;FEY;;LION;49;14500;7200;224;55;96;100;8400;;4149;4150;1;13013;26.64;28.14;31,6;BCS1388054;3;15
009531;19.12.2019;11:28:29;Stop           ;04.12.2018;FEY;;LION;49;14500;7200;192;55;57;60;8400;3000;3762;3763;1;13014;35.14;38.44;35,1;BCS1388054;3;15
009531;19.12.2019;12:16:41;Cycle          ;04.12.2018;FEY;;LION;49;14500;7200;192;55;57;60;8400;3000;3776;3778;1;13015;31.54;31.04;32,7;BCS1388054;3;15
009531;20.12.2019;17:23:28;Stop           ;04.12.2018;FEY;;LION;49;14500;7200;224;57;94;100;8400;;4152;4154;1;13014;27.24;28.44;31,9;BCS1388054;3;15
009531;06.01.2020;06:34:46;Ladung auf 60% ;04.12.2018;FEY;;LION;49;14500;7200;224;57;93;99;8400;;4122;4124;1;13015;26.84;28.24;31,9;BCS1388054;3;15
009531;06.01.2020;09:29:20;Stop           ;04.12.2018;FEY;;LION;49;14500;7200;192;57;57;60;8400;3000;3764;3766;1;13015;34.24;36.84;34,2;BCS1388054;3;15
009531;06.01.2020;09:50:34;Fastcharge    ;04.12.2018;FEY;;LION;49;14500;7200;192;57;57;60;8400;3000;3775;3778;1;13015;32.74;31.84;32,7;BCS1388054;3;15
009531;06.01.2020;13:06:26;Stop           ;04.12.2018;FEY;;LION;49;14500;7200;224;57;94;100;8400;;4160;4163;1;13016;30.84;31.24;32,1;BCS1388054;3;15