File: reader/backup_20220209/Batterieverzeichnis/009511.txt
Serialnumber ; Date ; Time ; Action ; Date of Manufacture ; Manufacturer ; Battery Name ; Device-Chemistry ; Specification-Info ; Design-Capacity [mAh] ; Design-Voltage [mV] ; Battery Status ; Cycle Count ; SOC [%] ; Relativ SOC[%] ; Desired Voltage [mV]; Desired Current [mA]; Cell Voltage 1 [mV] ; Cell Voltage 2 [mV] ; Max_Error [%] ; Busvoltage[mV] ; Battery Temperature [°C] ; Charger Temperature [°C] ; Batterysystem ; Case ; PLace
009511;07.12.2020;04:14:36;Cycle         ;04.12.2018;FEY;;LION;49;14500;7200;192;2;98;98;8400;;4141;4143;1;12994;25.94;26.14;30,3;BCS1388054;6;6
009511;08.12.2020;16:20:13;Stop          ;04.12.2018;FEY;;LION;49;14500;7200;192;2;98;98;8400;;4139;4141;1;12994;27.84;27.54;31,9;BCS1388054;6;6
009511;12.01.2021;04:17:36;Charge to 90% ;04.12.2018;FEY;;LION;49;14500;7200;192;2;96;97;8400;;4125;4127;1;13010;23.34;23.64;23,6;BCS1388054;5;12
009511;12.01.2021;05:15:37;Stop          ;04.12.2018;FEY;;LION;49;14500;7200;192;2;90;90;8400;3000;4062;4063;1;13003;27.74;27.74;31,6;BCS1388054;5;12
009511;12.01.2021;05:21:53;Cycle         ;04.12.2018;FEY;;LION;49;14500;7200;192;2;90;90;8400;3000;4063;4063;1;13004;27.44;27.24;30,6;BCS1388054;5;12
009511;13.01.2021;08:31:10;Stop          ;04.12.2018;FEY;;LION;49;14500;7200;224;3;97;100;8400;;4155;4157;1;13003;27.14;27.24;31,1;BCS1388054;5;12
009511;21.02.2021;13:44:56;Normalcharge  ;04.12.2018;FEY;;LION;49;14500;7200;192;4;54;56;8400;3000;3706;3705;1;13005;23.24;22.54;27,7;BCS1388054;5;6
009511;21.02.2021;19:31:36;Stop          ;04.12.2018;FEY;;LION;49;14500;7200;224;4;98;100;8400;;4154;4156;1;13002;26.94;26.24;30,6;BCS1388054;5;6
009511;06.04.2021;08:39:03;Normalcharge  ;04.12.2018;FEY;;LION;49;14500;7200;224;4;96;99;8400;;4128;4129;1;13020;21.04;25.54;28,1;BCS1388054;4;16
009511;06.04.2021;08:39:53;Stop          ;04.12.2018;FEY;;LION;49;14500;7200;224;4;96;99;8400;;4129;4130;1;13018;21.04;25.74;28,4;BCS1388054;4;16
009511;08.04.2021;07:58:12;Normalcharge  ;04.12.2018;FEY;;LION;49;14500;7200;224;4;96;99;8400;;4128;4130;1;13021;25.54;19.44;26,3;BCS1388054;4;16
009511;08.04.2021;07:59:34;Stop          ;04.12.2018;FEY;;LION;49;14500;7200;224;4;96;99;8400;;4128;4130;1;13002;25.54;26.44;26,7;BCS1388054;4;16
009511;08.04.2021;10:36:07;Normalcharge  ;04.12.2018;FEY;;LION;49;14500;7200;224;4;96;99;8400;;4128;4129;1;13019;25.64;26.54;28,5;BCS1388054;4;16
009511;08.04.2021;10:37:03;Stop          ;04.12.2018;FEY;;LION;49;14500;7200;224;4;96;99;8400;;4128;4129;1;12996;25.64;26.94;29,0;BCS1388054;4;16
009511;18.04.2021;08:34:04;Normalcharge  ;04.12.2018;FEY;;LION;49;14500;7200;192;4;96;98;8400;;4124;4126;1;13019;26.44;27.44;27,9;BCS1388054;4;16
009511;18.04.2021;08:34:10;Stop          ;04.12.2018;FEY;;LION;49;14500;7200;192;4;96;98;8400;;4124;4125;1;13018;26.34;27.44;28,1;BCS1388054;4;16
009511;04.08.2021;07:24:46;Normalcharge  ;04.12.2018;FEY;;LION;49;14500;7200;192;4;93;96;8400;;4094;4094;1;13015;30.54;31.44;31,5;BCS1388054;4;16
009511;04.08.2021;07:25:30;Stop          ;04.12.2018;FEY;;LION;49;14500;7200;192;4;93;96;8400;;4094;4094;1;12992;30.54;31.74;31,7;BCS1388054;4;16
009511;22.08.2021;11:08:14;Normalcharge  ;04.12.2018;FEY;;LION;49;14500;7200;192;4;88;91;8400;3000;4039;4040;1;13009;24.14;30.34;32,2;BCS1388054;6;15
009511;22.08.2021;11:08:47;Stop          ;04.12.2018;FEY;;LION;49;14500;7200;128;4;88;91;8400;3000;4068;4057;1;12787;24.24;31.74;32,5;BCS1388054;6;15
009511;14.10.2021;12:40:04;Normalcharge  ;04.12.2018;FEY;;LION;49;14500;7200;192;4;85;88;8400;3000;4011;4011;1;13005;25.84;27.14;27,9;BCS1388054;3;13
009511;14.10.2021;12:41:33;Stop           ;04.12.2018;FEY;;LION;49;14500;7200;128;4;86;88;8400;3000;4096;4056;1;12617;25.94;30.64;28,4;BCS1388054;3;13
009511;28.12.2021;09:01:29;Normalcharge  ;04.12.2018;FEY;;LION;49;14500;7200;192;4;55;57;8400;3000;3715;3714;1;13008;23.74;23.84;25,4;BCS1388054;4;8
009511;28.12.2021;09:02:38;Stop          ;04.12.2018;FEY;;LION;49;14500;7200;128;4;55;57;8400;3000;3804;3757;1;12593;23.74;26.64;25,8;BCS1388054;4;8