File: reader/backup_20220209/Batterieverzeichnis/009536.txt
Serialnumber ; Date ; Time ; Action ; Date of Manufacture ; Manufacturer ; Battery Name ; Device-Chemistry ; Specification-Info ; Design-Capacity [mAh] ; Design-Voltage [mV] ; Battery Status ; Cycle Count ; SOC [%] ; Relativ SOC[%] ; Desired Voltage [mV]; Desired Current [mA]; Cell Voltage 1 [mV] ; Cell Voltage 2 [mV] ; Max_Error [%] ; Busvoltage[mV] ; Battery Temperature [°C] ; Charger Temperature [°C] ; Batterysystem ; Case ; PLace
009536;07.12.2020;04:14:40;Cycle         ;04.12.2018;FEY;;LION;49;14500;7200;192;1;96;96;8400;;4100;4099;1;13017;25.94;27.54;30,3;BCS1388054;7;7
009536;08.12.2020;16:20:20;Stop          ;04.12.2018;FEY;;LION;49;14500;7200;192;1;97;96;8400;;4099;4098;1;13016;27.94;28.94;31,9;BCS1388054;7;7
009536;12.01.2021;04:17:36;Charge to 90% ;04.12.2018;FEY;;LION;49;14500;7200;192;1;78;78;8400;3000;3916;3916;1;13016;23.34;23.64;23,6;BCS1388054;5;8
009536;12.01.2021;05:15:37;Stop          ;04.12.2018;FEY;;LION;49;14500;7200;128;1;90;90;8400;3000;4141;4093;1;13011;28.44;32.74;31,6;BCS1388054;5;8
009536;12.01.2021;05:21:53;Cycle         ;04.12.2018;FEY;;LION;49;14500;7200;192;1;90;90;8400;3000;4045;4045;1;13011;28.34;28.44;30,6;BCS1388054;5;8
009536;13.01.2021;08:31:10;Stop          ;04.12.2018;FEY;;LION;49;14500;7200;224;3;98;100;8400;;4157;4157;1;13012;27.54;28.34;31,1;BCS1388054;5;8
009536;22.02.2021;17:31:46;Normalcharge  ;04.12.2018;FEY;;LION;49;14500;7200;192;3;62;64;8400;3000;3791;3791;1;12991;25.94;26.14;31,6;BCS1388054;1;5
009536;22.02.2021;23:06:28;Stop          ;04.12.2018;FEY;;LION;49;14500;7200;224;3;99;100;8400;;4156;4155;1;12993;26.64;26.54;30,6;BCS1388054;1;5
009536;04.04.2021;11:50:33;Normalcharge  ;04.12.2018;FEY;;LION;49;14500;7200;192;4;52;54;8400;3000;3682;3682;1;13008;25.24;26.24;27,9;BCS1388054;2;16
009536;04.04.2021;11:51:48;Stop          ;04.12.2018;FEY;;LION;49;14500;7200;128;4;52;54;8400;3000;3770;3722;1;12579;25.24;28.84;28,6;BCS1388054;2;16
009536;05.04.2021;09:38:00;Ladung auf 60% ;04.12.2018;FEY;;LION;49;14500;7200;192;4;52;54;8400;3000;3684;3684;1;13011;25.34;25.14;26,3;BCS1388054;3;17
009536;05.04.2021;10:06:07;Stop           ;04.12.2018;FEY;;LION;49;14500;7200;128;4;58;60;8400;3000;3850;3799;1;13009;27.74;34.34;31,4;BCS1388054;3;17
009536;22.08.2021;11:07:56;Normalcharge  ;04.12.2018;FEY;;LION;49;14500;7200;192;4;44;45;8400;3000;3620;3620;1;12979;23.14;30.34;32,0;BCS1388054;2;18
009536;22.08.2021;11:08:29;Stop          ;04.12.2018;FEY;;LION;49;14500;7200;128;4;44;45;8400;3000;3660;3638;1;12596;23.34;31.54;32,4;BCS1388054;2;18
009536;25.08.2021;08:15:02;Charge to 60% ;04.12.2018;FEY;;LION;49;14500;7200;192;4;44;45;8400;3000;3622;3622;1;13009;30.54;32.94;33,2;BCS1388054;5;15
009536;25.08.2021;13:03:31;Stop          ;04.12.2018;FEY;;LION;49;14500;7200;192;4;58;60;8400;3000;3736;3735;1;13006;33.04;35.64;36,6;BCS1388054;5;15
009536;28.12.2021;09:01:33;Normalcharge  ;04.12.2018;FEY;;LION;49;14500;7200;192;4;50;51;8400;3000;3653;3652;1;13014;24.04;25.24;25,4;BCS1388054;5;5
009536;28.12.2021;09:02:46;Stop          ;04.12.2018;FEY;;LION;49;14500;7200;128;4;50;51;8400;3000;3741;3695;1;12674;24.04;27.54;26,0;BCS1388054;5;5