File: reader/backup_20220209/Batterieverzeichnis/009626.txt
Serialnumber ; Date ; Time ; Action ; Date of Manufacture ; Manufacturer ; Battery Name ; Device-Chemistry ; Specification-Info ; Design-Capacity [mAh] ; Design-Voltage [mV] ; Battery Status ; Cycle Count ; SOC [%] ; Relativ SOC[%] ; Desired Voltage [mV]; Desired Current [mA]; Cell Voltage 1 [mV] ; Cell Voltage 2 [mV] ; Max_Error [%] ; Busvoltage[mV] ; Battery Temperature [°C] ; Charger Temperature [°C] ; Batterysystem ; Case ; PLace
009626;10.12.2019;15:28:54;Charge to 30% ;03.12.2018;FEY;;LION;49;14500;7200;224;56;93;100;8400;;4128;4129;1;13020;22.54;24.34;27,1;BCS1388054;4;13
009626;10.12.2019;20:47:57;Stop          ;03.12.2018;FEY;;LION;49;14500;7200;192;57;29;30;8400;3000;3558;3559;1;13017;33.94;35.44;33,4;BCS1388054;4;13
009626;11.12.2019;08:48:41;Fastcharge    ;03.12.2018;FEY;;LION;49;14500;7200;192;57;29;30;8400;3000;3567;3568;1;13018;26.54;28.14;31,9;BCS1388054;4;13
009626;11.12.2019;13:42:44;Stop          ;03.12.2018;FEY;;LION;49;14500;7200;224;57;95;100;8400;;4161;4161;1;13017;30.34;31.14;31,9;BCS1388054;4;13
009626;11.12.2019;15:46:31;Charge to 10% ;03.12.2018;FEY;;LION;49;14500;7200;224;57;96;100;8400;;4153;4153;1;13018;27.34;28.64;31,4;BCS1388054;4;13
009626;11.12.2019;22:50:44;Stop          ;03.12.2018;FEY;;LION;49;14500;7200;192;58;10;10;8400;3000;3353;3353;1;13016;34.64;35.04;33,2;BCS1388054;4;13
009626;12.12.2019;08:45:03;Normalcharge  ;03.12.2018;FEY;;LION;49;14500;7200;192;58;9;10;8400;3000;3363;3363;1;13019;26.64;28.34;31,9;BCS1388054;4;13
009626;12.12.2019;16:41:48;Stop          ;03.12.2018;FEY;;LION;49;14500;7200;224;58;96;100;8400;;4161;4160;1;13018;29.54;30.54;31,5;BCS1388054;4;13
009626;13.12.2019;10:48:01;Charge to 10% ;03.12.2018;FEY;;LION;49;14500;7200;224;58;96;100;8400;;4148;4148;1;13018;26.64;28.44;32,0;BCS1388054;4;13
009626;13.12.2019;15:42:25;Stop          ;03.12.2018;FEY;;LION;49;14500;7200;192;59;35;36;8400;3000;3499;3550;1;13515;33.44;41.84;34,6;BCS1388054;4;13
009626;13.12.2019;15:42:27;Cycle         ;03.12.2018;FEY;;LION;49;14500;7200;192;59;35;36;8400;3000;3499;3550;1;13515;33.44;41.84;34,6;BCS1388054;4;13
009626;14.12.2019;22:44:28;Stop          ;03.12.2018;FEY;;LION;49;14500;7200;224;60;93;99;8400;;4151;4151;1;13018;26.74;28.44;32,0;BCS1388054;4;13
009626;16.12.2019;07:43:14;Charge to 10% ;03.12.2018;FEY;;LION;49;14500;7200;224;60;93;100;8400;;4145;4145;1;13019;26.54;28.04;31,9;BCS1388054;4;13
009626;16.12.2019;14:36:44;Stop          ;03.12.2018;FEY;;LION;49;14500;7200;192;61;10;10;8400;3000;3365;3366;1;13018;33.04;33.84;32,4;BCS1388054;4;13
009626;16.12.2019;14:44:13;Charge to 90% ;03.12.2018;FEY;;LION;49;14500;7200;192;61;10;10;8400;3000;3367;3368;1;13018;32.34;31.84;31,7;BCS1388054;4;13
009626;16.12.2019;20:50:28;Stop          ;03.12.2018;FEY;;LION;49;14500;7200;192;61;84;90;8400;3000;4055;4056;1;13018;32.24;33.14;31,6;BCS1388054;4;13
009626;17.12.2019;08:37:50;Fastcharge    ;03.12.2018;FEY;;LION;49;14500;7200;192;61;84;90;8400;3000;4046;4046;1;13018;26.54;28.14;31,6;BCS1388054;4;13
009626;17.12.2019;10:31:06;Stop          ;03.12.2018;FEY;;LION;49;14500;7200;224;61;95;100;8400;;4162;4162;1;13019;28.44;30.74;31,4;BCS1388054;4;13
009626;17.12.2019;13:38:32;Charge to 10% ;03.12.2018;FEY;;LION;49;14500;7200;224;61;95;100;8400;;4150;4149;1;13018;26.84;28.24;30,8;BCS1388054;4;13
009626;17.12.2019;20:34:29;Stop          ;03.12.2018;FEY;;LION;49;14500;7200;192;62;10;10;8400;3000;3364;3364;1;13016;34.64;35.34;34,1;BCS1388054;4;13
009626;18.12.2019;08:31:26;Fastcharge    ;03.12.2018;FEY;;LION;49;14500;7200;192;62;10;10;8400;3000;3373;3374;1;13019;26.64;28.34;31,6;BCS1388054;4;13
009626;18.12.2019;14:29:12;Stop          ;03.12.2018;FEY;;LION;49;14500;7200;224;62;95;100;8400;;4160;4159;1;13018;30.44;31.04;31,9;BCS1388054;4;13
009626;19.12.2019;08:23:58;Charge to 60% ;03.12.2018;FEY;;LION;49;14500;7200;224;62;95;100;8400;;4148;4148;1;13018;26.54;28.14;31,6;BCS1388054;4;13
009626;19.12.2019;11:30:18;Stop          ;03.12.2018;FEY;;LION;49;14500;7200;192;63;58;60;8400;3000;3765;3766;1;13016;34.54;37.04;34,6;BCS1388054;4;13
009626;19.12.2019;12:16:45;Cycle         ;03.12.2018;FEY;;LION;49;14500;7200;192;63;58;60;8400;3000;3775;3777;1;13018;30.74;30.94;32,7;BCS1388054;4;13
009626;20.12.2019;17:30:48;Stop          ;03.12.2018;FEY;;LION;49;14500;7200;224;64;94;100;8400;;4152;4152;1;13019;26.94;28.14;30,6;BCS1388054;4;13
009626;06.01.2020;06:34:50;Charge to 60% ;03.12.2018;FEY;;LION;49;14500;7200;224;64;93;99;8400;;4122;4122;1;13019;26.84;28.44;31,9;BCS1388054;4;13
009626;06.01.2020;09:30:33;Stop          ;03.12.2018;FEY;;LION;49;14500;7200;192;64;57;60;8400;3000;3766;3768;1;13018;33.64;36.04;33,7;BCS1388054;4;13
009626;06.01.2020;09:50:38;Fastcharge    ;03.12.2018;FEY;;LION;49;14500;7200;192;64;57;60;8400;3000;3775;3777;1;13019;31.94;31.64;32,7;BCS1388054;4;13
009626;06.01.2020;13:09:19;Stop          ;03.12.2018;FEY;;LION;49;14500;7200;224;64;94;100;8400;;4160;4161;1;13020;30.14;30.84;31,4;BCS1388054;4;13