File: reader/backup_20220209/Batterieverzeichnis/009635.txt
Serialnumber ; Date ; Time ; Action ; Date of Manufacture ; Manufacturer ; Battery Name ; Device-Chemistry ; Specification-Info ; Design-Capacity [mAh] ; Design-Voltage [mV] ; Battery Status ; Cycle Count ; SOC [%] ; Relativ SOC[%] ; Desired Voltage [mV]; Desired Current [mA]; Cell Voltage 1 [mV] ; Cell Voltage 2 [mV] ; Max_Error [%] ; Busvoltage[mV] ; Battery Temperature [°C] ; Charger Temperature [°C] ; Batterysystem ; Case ; PLace
009635;10.12.2019;15:28:53;Charge to 30% ;04.12.2018;FEY;;LION;49;14500;7200;224;53;93;100;8400;;4129;4129;1;13021;22.14;24.74;27,1;BCS1388054;4;1
009635;10.12.2019;20:47:57;Stop          ;04.12.2018;FEY;;LION;49;14500;7200;192;54;29;30;8400;3000;3560;3559;1;13019;33.14;33.84;33,4;BCS1388054;4;1
009635;11.12.2019;08:48:41;Fastcharge    ;04.12.2018;FEY;;LION;49;14500;7200;192;54;29;30;8400;3000;3569;3569;1;13020;25.94;28.64;31,9;BCS1388054;4;1
009635;11.12.2019;13:42:44;Stop          ;04.12.2018;FEY;;LION;49;14500;7200;224;54;95;100;8400;;4161;4162;1;13020;29.34;30.54;31,9;BCS1388054;4;1
009635;11.12.2019;15:46:31;Charge to 10% ;04.12.2018;FEY;;LION;49;14500;7200;224;54;96;100;8400;;4153;4154;1;13019;26.74;28.94;31,4;BCS1388054;4;1
009635;11.12.2019;22:50:44;Stop          ;04.12.2018;FEY;;LION;49;14500;7200;192;55;10;10;8400;3000;3352;3352;1;13019;33.84;33.84;33,2;BCS1388054;4;1
009635;12.12.2019;08:45:03;Normalcharge  ;04.12.2018;FEY;;LION;49;14500;7200;192;55;9;10;8400;3000;3363;3363;1;13020;26.14;28.84;31,9;BCS1388054;4;1
009635;12.12.2019;16:41:48;Stop          ;04.12.2018;FEY;;LION;49;14500;7200;224;55;96;100;8400;;4160;4160;1;13018;28.64;30.04;31,5;BCS1388054;4;1
009635;13.12.2019;10:48:01;Charge to 10% ;04.12.2018;FEY;;LION;49;14500;7200;224;55;96;100;8400;;4148;4148;1;13020;26.14;28.84;32,0;BCS1388054;4;1
009635;13.12.2019;15:42:25;Stop          ;04.12.2018;FEY;;LION;49;14500;7200;192;56;35;37;8400;3000;3502;3553;1;13505;32.54;38.44;34,6;BCS1388054;4;1
009635;13.12.2019;15:42:27;Cycle         ;04.12.2018;FEY;;LION;49;14500;7200;192;56;35;37;8400;3000;3502;3553;1;13018;32.54;38.34;34,6;BCS1388054;4;1
009635;14.12.2019;22:44:28;Stop          ;04.12.2018;FEY;;LION;49;14500;7200;224;57;93;99;8400;;4151;4151;1;13020;26.24;28.84;32,0;BCS1388054;4;1
009635;16.12.2019;07:43:14;Charge to 10% ;04.12.2018;FEY;;LION;49;14500;7200;224;57;94;100;8400;;4145;4145;1;13020;25.94;28.34;31,9;BCS1388054;4;1
009635;16.12.2019;14:36:44;Stop          ;04.12.2018;FEY;;LION;49;14500;7200;192;58;10;10;8400;3000;3365;3365;1;13019;32.24;32.44;32,4;BCS1388054;4;1
009635;16.12.2019;14:44:13;Charge to 90% ;04.12.2018;FEY;;LION;49;14500;7200;192;58;10;10;8400;3000;3367;3367;1;13019;31.64;31.34;31,7;BCS1388054;4;1
009635;16.12.2019;20:50:27;Stop          ;04.12.2018;FEY;;LION;49;14500;7200;192;58;84;90;8400;3000;4060;4061;1;13019;31.24;31.74;31,6;BCS1388054;4;1
009635;17.12.2019;08:37:49;Fastcharge    ;04.12.2018;FEY;;LION;49;14500;7200;192;58;85;90;8400;3000;4049;4050;1;13019;26.04;28.64;31,6;BCS1388054;4;1
009635;17.12.2019;10:31:06;Stop          ;04.12.2018;FEY;;LION;49;14500;7200;224;58;95;100;8400;;4160;4160;1;13020;27.54;29.74;31,4;BCS1388054;4;1
009635;17.12.2019;13:38:32;Charge to 10% ;04.12.2018;FEY;;LION;49;14500;7200;224;58;95;100;8400;;4149;4149;1;13020;26.34;28.44;30,8;BCS1388054;4;1
009635;17.12.2019;20:34:28;Stop          ;04.12.2018;FEY;;LION;49;14500;7200;192;59;10;10;8400;3000;3365;3365;1;13019;33.84;34.04;34,1;BCS1388054;4;1
009635;18.12.2019;08:31:26;Fastcharge    ;04.12.2018;FEY;;LION;49;14500;7200;192;59;10;10;8400;3000;3374;3374;1;13020;26.14;28.64;31,6;BCS1388054;4;1
009635;18.12.2019;14:29:12;Stop          ;04.12.2018;FEY;;LION;49;14500;7200;224;59;95;100;8400;;4161;4162;1;13021;29.44;30.64;31,9;BCS1388054;4;1
009635;19.12.2019;08:23:58;Charge to 60% ;04.12.2018;FEY;;LION;49;14500;7200;224;59;96;100;8400;;4148;4148;1;13020;26.04;28.64;31,6;BCS1388054;4;1
009635;19.12.2019;11:30:18;Stop          ;04.12.2018;FEY;;LION;49;14500;7200;192;60;58;60;8400;3000;3770;3771;1;13019;33.64;35.04;34,6;BCS1388054;4;1
009635;19.12.2019;12:16:45;Cycle         ;04.12.2018;FEY;;LION;49;14500;7200;192;60;58;60;8400;3000;3782;3782;1;13021;29.94;31.04;32,7;BCS1388054;4;1
009635;20.12.2019;17:30:48;Stop          ;04.12.2018;FEY;;LION;49;14500;7200;224;61;94;100;8400;;4151;4151;1;13021;26.34;28.34;30,6;BCS1388054;4;1
009635;06.01.2020;06:34:50;Charge to 60% ;04.12.2018;FEY;;LION;49;14500;7200;192;61;93;98;8400;;4122;4122;1;13020;26.24;28.74;31,9;BCS1388054;4;1
009635;06.01.2020;09:30:33;Stop          ;04.12.2018;FEY;;LION;49;14500;7200;192;61;57;60;8400;3000;3769;3769;1;13020;32.84;34.34;33,7;BCS1388054;4;1
009635;06.01.2020;09:50:38;Fastcharge    ;04.12.2018;FEY;;LION;49;14500;7200;192;61;57;60;8400;3000;3780;3780;1;13021;31.24;31.64;32,7;BCS1388054;4;1
009635;06.01.2020;13:09:19;Stop          ;04.12.2018;FEY;;LION;49;14500;7200;224;61;94;100;8400;;4161;4162;1;13020;28.94;30.14;31,4;BCS1388054;4;1