File: reader/backup_20220209/Batterieverzeichnis/009693.txt
Serialnumber ; Date ; Time ; Action ; Date of Manufacture ; Manufacturer ; Battery Name ; Device-Chemistry ; Specification-Info ; Design-Capacity [mAh] ; Design-Voltage [mV] ; Battery Status ; Cycle Count ; SOC [%] ; Relativ SOC[%] ; Desired Voltage [mV]; Desired Current [mA]; Cell Voltage 1 [mV] ; Cell Voltage 2 [mV] ; Max_Error [%] ; Busvoltage[mV] ; Battery Temperature [°C] ; Charger Temperature [°C] ; Batterysystem ; Case ; PLace
009693;10.12.2019;15:28:47;Ladung auf 30% ;04.12.2018;FEY;;LION;49;14500;7200;224;46;93;100;8400;;4131;4130;1;13010;22.94;23.84;27,1;BCS1388054;3;6
009693;10.12.2019;20:47:21;Stop           ;04.12.2018;FEY;;LION;49;14500;7200;192;46;29;30;8400;3000;3556;3556;1;13010;33.24;31.34;33,5;BCS1388054;3;6
009693;11.12.2019;08:48:36;Fastcharge    ;04.12.2018;FEY;;LION;49;14500;7200;192;46;29;30;8400;3000;3566;3566;1;13008;26.44;26.64;31,9;BCS1388054;3;6
009693;11.12.2019;13:39:41;Stop           ;04.12.2018;FEY;;LION;49;14500;7200;224;46;94;100;8400;;4161;4163;1;13010;29.54;28.54;32,5;BCS1388054;3;6
009693;11.12.2019;15:46:24;Ladung auf 10% ;04.12.2018;FEY;;LION;49;14500;7200;224;46;96;100;8400;;4153;4154;1;13010;27.14;26.94;31,4;BCS1388054;3;6
009693;11.12.2019;22:48:44;Stop           ;04.12.2018;FEY;;LION;49;14500;7200;192;48;10;10;8400;3000;3350;3350;1;13009;33.84;31.64;33,6;BCS1388054;3;6
009693;12.12.2019;08:44:58;Normalcharge  ;04.12.2018;FEY;;LION;49;14500;7200;192;48;9;10;8400;3000;3361;3362;1;13009;26.64;26.74;31,9;BCS1388054;3;6
009693;12.12.2019;16:39:24;Stop           ;04.12.2018;FEY;;LION;49;14500;7200;224;48;96;100;8400;;4161;4161;1;13009;28.84;28.04;31,7;BCS1388054;3;6
009693;13.12.2019;10:47:57;Ladung auf 10% ;04.12.2018;FEY;;LION;49;14500;7200;224;48;96;100;8400;;4148;4148;1;13008;26.64;26.94;32,0;BCS1388054;3;6
009693;13.12.2019;15:42:18;Stop           ;04.12.2018;FEY;;LION;49;14500;7200;192;48;35;37;8400;3000;3501;3551;1;13550;32.54;33.64;34,6;BCS1388054;3;6
009693;13.12.2019;15:42:20;Cycle          ;04.12.2018;FEY;;LION;49;14500;7200;192;48;35;37;8400;3000;3501;3551;1;13550;32.54;33.64;34,6;BCS1388054;3;6
009693;14.12.2019;22:36:33;Stop           ;04.12.2018;FEY;;LION;49;14500;7200;224;50;93;99;8400;;4151;4152;1;13009;26.64;26.74;31,6;BCS1388054;3;6
009693;16.12.2019;07:43:10;Ladung auf 10% ;04.12.2018;FEY;;LION;49;14500;7200;224;50;94;100;8400;;4145;4146;1;13009;26.34;26.44;31,9;BCS1388054;3;6
009693;16.12.2019;14:34:27;Stop           ;04.12.2018;FEY;;LION;49;14500;7200;192;51;10;10;8400;3000;3361;3361;1;13009;32.44;30.34;32,5;BCS1388054;3;6
009693;16.12.2019;14:44:07;Ladung auf 90% ;04.12.2018;FEY;;LION;49;14500;7200;192;51;10;10;8400;3000;3365;3366;1;13010;31.74;29.24;31,7;BCS1388054;3;6
009693;16.12.2019;20:48:39;Stop           ;04.12.2018;FEY;;LION;49;14500;7200;192;51;84;90;8400;3000;4061;4061;1;13010;31.34;29.34;31,9;BCS1388054;3;6
009693;17.12.2019;08:37:44;Fastcharge    ;04.12.2018;FEY;;LION;49;14500;7200;192;51;84;90;8400;3000;4047;4047;1;13009;26.44;26.64;31,5;BCS1388054;3;6
009693;17.12.2019;10:30:44;Stop           ;04.12.2018;FEY;;LION;49;14500;7200;224;51;95;100;8400;;4160;4159;1;13010;27.84;27.44;31,4;BCS1388054;3;6
009693;17.12.2019;13:38:28;Ladung auf 10% ;04.12.2018;FEY;;LION;49;14500;7200;224;51;95;100;8400;;4150;4149;1;13010;26.74;26.74;30,8;BCS1388054;3;6
009693;17.12.2019;20:32:04;Stop           ;04.12.2018;FEY;;LION;49;14500;7200;192;52;10;10;8400;3000;3361;3360;1;13010;33.84;31.84;34,6;BCS1388054;3;6
009693;18.12.2019;08:31:22;Fastcharge    ;04.12.2018;FEY;;LION;49;14500;7200;192;52;10;10;8400;3000;3372;3372;1;13010;26.54;26.64;31,6;BCS1388054;3;6
009693;18.12.2019;14:26:33;Stop           ;04.12.2018;FEY;;LION;49;14500;7200;224;52;95;100;8400;;4161;4160;1;13011;29.54;28.54;32,5;BCS1388054;3;6
009693;19.12.2019;08:23:54;Ladung auf 60% ;04.12.2018;FEY;;LION;49;14500;7200;224;52;95;100;8400;;4148;4147;1;13009;26.44;26.64;31,6;BCS1388054;3;6
009693;19.12.2019;11:28:29;Stop           ;04.12.2018;FEY;;LION;49;14500;7200;192;52;58;60;8400;3000;3763;3760;1;13009;33.84;32.54;35,1;BCS1388054;3;6
009693;19.12.2019;12:16:41;Cycle          ;04.12.2018;FEY;;LION;49;14500;7200;192;52;58;60;8400;3000;3778;3775;1;13010;30.04;28.64;32,7;BCS1388054;3;6
009693;20.12.2019;17:23:28;Stop           ;04.12.2018;FEY;;LION;49;14500;7200;224;54;94;100;8400;;4151;4152;1;13009;26.74;26.84;31,9;BCS1388054;3;6
009693;06.01.2020;06:34:46;Ladung auf 60% ;04.12.2018;FEY;;LION;49;14500;7200;224;54;93;99;8400;;4122;4122;1;13010;26.54;26.64;31,9;BCS1388054;3;6
009693;06.01.2020;09:29:20;Stop           ;04.12.2018;FEY;;LION;49;14500;7200;192;54;57;60;8400;3000;3761;3760;1;13010;33.04;31.74;34,2;BCS1388054;3;6
009693;06.01.2020;09:50:34;Fastcharge    ;04.12.2018;FEY;;LION;49;14500;7200;192;54;57;60;8400;3000;3775;3774;1;13010;31.34;29.44;32,7;BCS1388054;3;6
009693;06.01.2020;13:06:26;Stop           ;04.12.2018;FEY;;LION;49;14500;7200;224;54;94;100;8400;;4159;4161;1;13011;29.14;28.04;32,1;BCS1388054;3;6