File: reader/backup_20220209/Batterieverzeichnis/009624.txt
Serialnumber ; Date ; Time ; Action ; Date of Manufacture ; Manufacturer ; Battery Name ; Device-Chemistry ; Specification-Info ; Design-Capacity [mAh] ; Design-Voltage [mV] ; Battery Status ; Cycle Count ; SOC [%] ; Relativ SOC[%] ; Desired Voltage [mV]; Desired Current [mA]; Cell Voltage 1 [mV] ; Cell Voltage 2 [mV] ; Max_Error [%] ; Busvoltage[mV] ; Battery Temperature [°C] ; Charger Temperature [°C] ; Batterysystem ; Case ; PLace
009624;10.12.2019;15:28:34;Charge to 30% ;04.12.2018;FEY;;LION;49;14500;7200;192;49;92;98;8400;;4108;4108;1;13007;23.74;25.74;27,1;BCS1388054;1;17
009624;10.12.2019;20:42:17;Stop          ;04.12.2018;FEY;;LION;49;14500;7200;192;49;29;30;8400;3000;3558;3560;1;13006;32.34;33.74;34,1;BCS1388054;1;17
009624;11.12.2019;08:48:18;Fastcharge    ;04.12.2018;FEY;;LION;49;14500;7200;192;49;29;30;8400;3000;3568;3570;1;13007;26.24;27.54;31,9;BCS1388054;1;17
009624;11.12.2019;13:40:21;Stop          ;04.12.2018;FEY;;LION;49;14500;7200;224;49;95;100;8400;;4160;4160;1;13007;28.94;29.84;32,4;BCS1388054;1;17
009624;11.12.2019;15:45:57;Charge to 30% ;04.12.2018;FEY;;LION;49;14500;7200;224;49;96;99;8400;;4152;4151;1;13006;26.84;27.74;31,5;BCS1388054;1;17
009624;11.12.2019;15:46:00;Stop          ;04.12.2018;FEY;;LION;49;14500;7200;224;49;96;99;8400;;4152;4151;1;13007;26.84;27.74;31,5;BCS1388054;1;17
009624;11.12.2019;15:46:13;Charge to 10% ;04.12.2018;FEY;;LION;49;14500;7200;224;49;96;99;8400;;4152;4151;1;13007;26.84;27.74;31,5;BCS1388054;1;17
009624;11.12.2019;22:50:20;Stop          ;04.12.2018;FEY;;LION;49;14500;7200;192;51;10;10;8400;3000;3358;3360;1;13007;32.64;32.74;33,4;BCS1388054;1;17
009624;12.12.2019;08:44:40;Normalcharge  ;04.12.2018;FEY;;LION;49;14500;7200;192;51;9;10;8400;3000;3367;3369;1;13008;26.44;27.74;31,9;BCS1388054;1;17
009624;12.12.2019;16:39:22;Stop          ;04.12.2018;FEY;;LION;49;14500;7200;224;51;96;100;8400;;4160;4159;1;13006;28.44;29.34;31,7;BCS1388054;1;17
009624;13.12.2019;10:47:47;Charge to 10% ;04.12.2018;FEY;;LION;49;14500;7200;224;51;96;100;8400;;4148;4146;1;13007;26.44;27.74;32,0;BCS1388054;1;17
009624;13.12.2019;15:41:58;Stop          ;04.12.2018;FEY;;LION;49;14500;7200;192;51;35;36;8400;3000;3501;3552;1;13649;32.04;38.74;34,6;BCS1388054;1;17
009624;13.12.2019;15:42:01;Cycle         ;04.12.2018;FEY;;LION;49;14500;7200;192;51;35;36;8400;3000;3500;3551;1;13005;32.04;38.74;34,6;BCS1388054;1;17
009624;14.12.2019;22:41:25;Stop          ;04.12.2018;FEY;;LION;49;14500;7200;224;53;94;100;8400;;4150;4153;1;13007;26.44;27.64;31,9;BCS1388054;1;17
009624;16.12.2019;07:43:03;Charge to 10% ;04.12.2018;FEY;;LION;49;14500;7200;224;53;94;100;8400;;4144;4146;1;13006;26.14;27.04;31,9;BCS1388054;1;17
009624;16.12.2019;14:36:13;Stop          ;04.12.2018;FEY;;LION;49;14500;7200;192;54;10;10;8400;3000;3363;3366;1;13007;31.74;32.24;32,4;BCS1388054;1;17
009624;16.12.2019;14:44:00;Charge to 90% ;04.12.2018;FEY;;LION;49;14500;7200;192;54;10;10;8400;3000;3365;3369;1;13007;31.04;30.44;31,7;BCS1388054;1;17
009624;16.12.2019;20:50:03;Stop          ;04.12.2018;FEY;;LION;49;14500;7200;192;54;85;90;8400;3000;4055;4058;1;13008;30.64;31.34;31,7;BCS1388054;1;17
009624;17.12.2019;08:37:37;Fastcharge    ;04.12.2018;FEY;;LION;49;14500;7200;192;54;85;90;8400;3000;4045;4047;1;13007;26.24;27.44;31,6;BCS1388054;1;17
009624;17.12.2019;10:31:11;Stop          ;04.12.2018;FEY;;LION;49;14500;7200;224;54;95;100;8400;;4160;4161;1;13007;27.54;28.64;31,4;BCS1388054;1;17
009624;17.12.2019;13:38:19;Charge to 10% ;04.12.2018;FEY;;LION;49;14500;7200;224;54;95;100;8400;;4149;4149;1;13007;26.44;27.34;30,8;BCS1388054;1;17
009624;17.12.2019;20:33:50;Stop          ;04.12.2018;FEY;;LION;49;14500;7200;192;55;10;10;8400;3000;3360;3363;1;13006;32.84;33.44;34,2;BCS1388054;1;17
009624;18.12.2019;08:31:14;Fastcharge    ;04.12.2018;FEY;;LION;49;14500;7200;192;55;10;10;8400;3000;3371;3374;1;13008;26.34;27.54;31,6;BCS1388054;1;17
009624;18.12.2019;14:28:33;Stop          ;04.12.2018;FEY;;LION;49;14500;7200;224;55;95;100;8400;;4161;4161;1;13007;28.94;29.74;31,9;BCS1388054;1;17
009624;19.12.2019;08:23:45;Charge to 60% ;04.12.2018;FEY;;LION;49;14500;7200;224;55;96;100;8400;;4147;4147;1;13008;26.24;27.44;31,5;BCS1388054;1;17
009624;19.12.2019;11:29:32;Stop          ;04.12.2018;FEY;;LION;49;14500;7200;192;55;58;60;8400;3000;3760;3765;1;13006;32.84;35.04;34,9;BCS1388054;1;17
009624;19.12.2019;12:16:33;Cycle         ;04.12.2018;FEY;;LION;49;14500;7200;192;55;58;60;8400;3000;3772;3779;1;13007;29.34;29.44;32,7;BCS1388054;1;17
009624;20.12.2019;17:26:19;Stop          ;04.12.2018;FEY;;LION;49;14500;7200;224;57;94;100;8400;;4150;4152;1;13007;26.44;27.44;31,2;BCS1388054;1;17
009624;06.01.2020;06:34:38;Charge to 60% ;04.12.2018;FEY;;LION;49;14500;7200;224;57;93;99;8400;;4121;4122;1;13007;26.34;27.44;31,9;BCS1388054;1;17
009624;06.01.2020;09:30:30;Stop          ;04.12.2018;FEY;;LION;49;14500;7200;192;57;57;60;8400;3000;3765;3771;1;13006;32.04;33.34;33,9;BCS1388054;1;17
009624;06.01.2020;09:50:27;Fastcharge    ;04.12.2018;FEY;;LION;49;14500;7200;192;57;57;60;8400;3000;3773;3781;1;13007;30.34;30.14;32,6;BCS1388054;1;17
009624;06.01.2020;13:07:36;Stop          ;04.12.2018;FEY;;LION;49;14500;7200;224;57;94;100;8400;;4159;4160;1;13008;28.64;29.44;31,7;BCS1388054;1;17