File: reader/backup_20220209/Batterieverzeichnis/009636.txt
Serialnumber ; Date ; Time ; Action ; Date of Manufacture ; Manufacturer ; Battery Name ; Device-Chemistry ; Specification-Info ; Design-Capacity [mAh] ; Design-Voltage [mV] ; Battery Status ; Cycle Count ; SOC [%] ; Relativ SOC[%] ; Desired Voltage [mV]; Desired Current [mA]; Cell Voltage 1 [mV] ; Cell Voltage 2 [mV] ; Max_Error [%] ; Busvoltage[mV] ; Battery Temperature [°C] ; Charger Temperature [°C] ; Batterysystem ; Case ; PLace
009636;10.12.2019;15:28:41;Charge to 30% ;04.12.2018;FEY;;LION;49;14500;7200;224;46;92;99;8400;;4133;4132;1;13009;23.24;24.94;27,1;BCS1388054;2;17
009636;10.12.2019;20:48:37;Stop          ;04.12.2018;FEY;;LION;49;14500;7200;192;47;29;30;8400;3000;3560;3560;1;13008;33.64;34.34;33,2;BCS1388054;2;17
009636;11.12.2019;08:48:24;Fastcharge    ;04.12.2018;FEY;;LION;49;14500;7200;192;47;29;30;8400;3000;3568;3568;1;13007;26.54;28.34;31,9;BCS1388054;2;17
009636;11.12.2019;13:39:47;Stop          ;04.12.2018;FEY;;LION;49;14500;7200;224;47;95;100;8400;;4161;4161;1;13008;30.34;31.14;32,5;BCS1388054;2;17
009636;11.12.2019;15:46:18;Charge to 10% ;04.12.2018;FEY;;LION;49;14500;7200;224;47;96;100;8400;;4154;4154;1;13007;27.44;28.84;31,4;BCS1388054;2;17
009636;11.12.2019;22:49:04;Stop          ;04.12.2018;FEY;;LION;49;14500;7200;192;48;10;10;8400;3000;3351;3351;1;13007;34.54;35.14;33,6;BCS1388054;2;17
009636;12.12.2019;08:44:52;Normalcharge  ;04.12.2018;FEY;;LION;49;14500;7200;192;48;9;9;8400;3000;3362;3362;1;13007;26.74;28.64;31,9;BCS1388054;2;17
009636;12.12.2019;16:40:06;Stop          ;04.12.2018;FEY;;LION;49;14500;7200;224;48;96;100;8400;;4161;4161;1;13008;29.54;30.64;31,7;BCS1388054;2;17
009636;13.12.2019;10:47:50;Charge to 10% ;04.12.2018;FEY;;LION;49;14500;7200;224;48;96;100;8400;;4149;4149;1;13007;26.74;28.54;32,0;BCS1388054;2;17
009636;13.12.2019;15:42:08;Cycle         ;04.12.2018;FEY;;LION;49;14500;7200;192;49;34;36;8400;3000;3499;3551;1;13579;33.44;40.44;34,6;BCS1388054;2;17
009636;13.12.2019;15:42:08;Stop          ;04.12.2018;FEY;;LION;49;14500;7200;192;49;34;36;8400;3000;3499;3551;1;13579;33.44;40.44;34,6;BCS1388054;2;17
009636;14.12.2019;22:48:51;Stop          ;04.12.2018;FEY;;LION;49;14500;7200;224;50;93;100;8400;;4153;4154;1;13008;26.94;28.54;32,0;BCS1388054;2;17
009636;16.12.2019;07:43:06;Charge to 10% ;04.12.2018;FEY;;LION;49;14500;7200;224;50;94;100;8400;;4147;4148;1;13008;26.44;28.04;31,9;BCS1388054;2;17
009636;16.12.2019;14:37:54;Stop          ;04.12.2018;FEY;;LION;49;14500;7200;192;52;10;10;8400;3000;3364;3365;1;13009;33.14;33.24;32,4;BCS1388054;2;17
009636;16.12.2019;14:44:03;Charge to 90% ;04.12.2018;FEY;;LION;49;14500;7200;192;52;10;10;8400;3000;3366;3367;1;13008;32.64;32.24;31,9;BCS1388054;2;17
009636;16.12.2019;20:51:09;Stop          ;04.12.2018;FEY;;LION;49;14500;7200;192;52;84;90;8400;3000;4056;4056;1;13009;32.04;32.34;31,6;BCS1388054;2;17
009636;17.12.2019;08:37:41;Fastcharge    ;04.12.2018;FEY;;LION;49;14500;7200;192;52;84;90;8400;3000;4046;4047;1;13008;26.54;28.24;31,6;BCS1388054;2;17
009636;17.12.2019;10:30:36;Stop          ;04.12.2018;FEY;;LION;49;14500;7200;224;52;95;100;8400;;4164;4163;1;13009;28.34;30.54;31,5;BCS1388054;2;17
009636;17.12.2019;13:38:22;Charge to 10% ;04.12.2018;FEY;;LION;49;14500;7200;224;52;95;100;8400;;4152;4151;1;13009;26.94;28.44;30,8;BCS1388054;2;17
009636;17.12.2019;20:36:00;Stop          ;04.12.2018;FEY;;LION;49;14500;7200;192;53;10;10;8400;3000;3363;3362;1;13008;34.34;34.54;33,6;BCS1388054;2;17
009636;18.12.2019;08:31:17;Fastcharge    ;04.12.2018;FEY;;LION;49;14500;7200;192;53;10;10;8400;3000;3372;3372;1;13008;26.74;28.54;31,6;BCS1388054;2;17
009636;18.12.2019;14:28:27;Stop          ;04.12.2018;FEY;;LION;49;14500;7200;224;53;95;100;8400;;4162;4161;1;13009;30.44;31.04;32,0;BCS1388054;2;17
009636;19.12.2019;08:23:50;Charge to 60% ;04.12.2018;FEY;;LION;49;14500;7200;224;53;95;100;8400;;4150;4149;1;13008;26.54;28.34;31,5;BCS1388054;2;17
009636;19.12.2019;11:32:11;Stop          ;04.12.2018;FEY;;LION;49;14500;7200;192;53;58;60;8400;3000;3767;3768;1;13008;34.14;35.14;34,0;BCS1388054;2;17
009636;19.12.2019;12:16:37;Cycle         ;04.12.2018;FEY;;LION;49;14500;7200;192;53;58;60;8400;3000;3776;3778;1;13010;30.84;31.04;32,7;BCS1388054;2;17
009636;20.12.2019;17:35:47;Stop          ;04.12.2018;FEY;;LION;49;14500;7200;224;54;93;100;8400;;4153;4152;1;13008;26.84;28.34;31,1;BCS1388054;2;17
009636;06.01.2020;06:34:42;Charge to 60% ;04.12.2018;FEY;;LION;49;14500;7200;224;54;92;99;8400;;4123;4123;1;13009;26.64;28.34;31,9;BCS1388054;2;17
009636;06.01.2020;09:32:11;Stop          ;04.12.2018;FEY;;LION;49;14500;7200;192;55;57;60;8400;3000;3767;3769;1;13010;33.44;34.54;33,2;BCS1388054;2;17
009636;06.01.2020;09:50:30;Fastcharge    ;04.12.2018;FEY;;LION;49;14500;7200;192;55;57;60;8400;3000;3774;3777;1;13010;32.04;31.74;32,7;BCS1388054;2;17
009636;06.01.2020;13:08:34;Stop          ;04.12.2018;FEY;;LION;49;14500;7200;224;55;94;100;8400;;4160;4159;1;13010;29.84;30.74;31,6;BCS1388054;2;17