File: reader/backup_20220209/Batterieverzeichnis/009649.txt
Serialnumber ; Date ; Time ; Action ; Date of Manufacture ; Manufacturer ; Battery Name ; Device-Chemistry ; Specification-Info ; Design-Capacity [mAh] ; Design-Voltage [mV] ; Battery Status ; Cycle Count ; SOC [%] ; Relativ SOC[%] ; Desired Voltage [mV]; Desired Current [mA]; Cell Voltage 1 [mV] ; Cell Voltage 2 [mV] ; Max_Error [%] ; Busvoltage[mV] ; Battery Temperature [°C] ; Charger Temperature [°C] ; Batterysystem ; Case ; PLace
009649;07.12.2020;04:14:40;Cycle         ;04.12.2018;FEY;;LION;49;14500;7200;192;2;97;97;8400;;4118;4118;1;13026;25.74;28.24;30,3;BCS1388054;7;1
009649;08.12.2020;16:20:20;Stop          ;04.12.2018;FEY;;LION;49;14500;7200;192;2;97;97;8400;;4116;4117;1;13026;27.74;29.64;31,9;BCS1388054;7;1
009649;12.01.2021;04:17:33;Charge to 90% ;04.12.2018;FEY;;LION;49;14500;7200;192;2;96;96;8400;;4106;4106;1;13007;23.24;24.14;23,6;BCS1388054;4;7
009649;12.01.2021;04:57:16;Stop          ;04.12.2018;FEY;;LION;49;14500;7200;192;2;90;90;8400;3000;4050;4051;1;13002;27.14;30.44;31,6;BCS1388054;4;7
009649;12.01.2021;05:21:49;Cycle         ;04.12.2018;FEY;;LION;49;14500;7200;192;2;90;90;8400;3000;4053;4054;1;13003;27.34;28.94;30,4;BCS1388054;4;7
009649;13.01.2021;08:19:19;Stop          ;04.12.2018;FEY;;LION;49;14500;7200;224;4;98;100;8400;;4156;4156;1;13005;27.54;28.84;30,7;BCS1388054;4;7
009649;03.03.2021;08:17:35;Normalcharge  ;04.12.2018;FEY;;LION;49;14500;7200;192;4;74;76;8400;3000;3898;3898;1;13010;23.34;23.54;23,6;BCS1388054;5;11
009649;03.03.2021;11:26:36;Stop          ;04.12.2018;FEY;;LION;49;14500;7200;224;4;98;100;8400;;4159;4160;1;13003;28.64;28.84;31,5;BCS1388054;5;11
009649;04.04.2021;11:50:33;Normalcharge  ;04.12.2018;FEY;;LION;49;14500;7200;192;5;54;55;8400;3000;3701;3702;1;13005;25.14;26.64;27,9;BCS1388054;2;8
009649;04.04.2021;11:51:48;Stop          ;04.12.2018;FEY;;LION;49;14500;7200;128;5;54;55;8400;3000;3789;3743;1;12603;25.24;29.44;28,6;BCS1388054;2;8
009649;05.04.2021;09:37:37;Charge to 60% ;04.12.2018;FEY;;LION;49;14500;7200;192;5;54;55;8400;3000;3703;3704;1;13018;25.24;25.74;26,0;BCS1388054;1;16
009649;05.04.2021;10:01:53;Stop          ;04.12.2018;FEY;;LION;49;14500;7200;192;5;58;60;8400;3000;3765;3766;1;13016;27.04;28.54;31,2;BCS1388054;1;16
009649;22.08.2021;11:08:18;Normalcharge  ;04.12.2018;FEY;;LION;49;14500;7200;192;5;55;57;8400;3000;3705;3705;1;13021;29.94;30.04;32,2;BCS1388054;7;11
009649;22.08.2021;11:08:51;Stop          ;04.12.2018;FEY;;LION;49;14500;7200;128;5;55;57;8400;3000;3735;3717;1;12861;29.94;31.04;32,6;BCS1388054;7;11
009649;25.08.2021;08:15:19;Charge to 60% ;04.12.2018;FEY;;LION;49;14500;7200;192;5;55;57;8400;3000;3704;3705;1;12991;30.44;32.44;33,5;BCS1388054;2;8
009649;25.08.2021;10:43:16;Stop          ;04.12.2018;FEY;;LION;49;14500;7200;192;5;58;60;8400;3000;3742;3742;1;12990;33.04;34.94;36,4;BCS1388054;2;8
009649;01.11.2021;09:51:47;Normalcharge  ;04.12.2018;FEY;;LION;49;14500;7200;192;5;55;57;8400;3000;3713;3714;1;13035;26.14;26.24;26,3;BCS1388054;7;5
009649;01.11.2021;09:53:50;Stop          ;04.12.2018;FEY;;LION;49;14500;7200;128;5;55;57;8400;3000;3809;3761;1;12685;26.14;29.84;27,4;BCS1388054;7;5
009649;01.11.2021;10:02:29;Normalcharge  ;04.12.2018;FEY;;LION;49;14500;7200;192;5;56;57;8400;3000;3718;3719;1;13029;26.24;27.94;29,5;BCS1388054;7;5
009649;01.11.2021;10:03:04;Stop          ;04.12.2018;FEY;;LION;49;14500;7200;128;5;56;57;8400;3000;3778;3744;1;12734;26.24;28.94;29,3;BCS1388054;7;5
009649;01.11.2021;10:27:23;Normalcharge  ;04.12.2018;FEY;;LION;49;14500;7200;192;5;56;57;8400;3000;3719;3719;1;13031;26.44;27.34;27,7;BCS1388054;7;5
009649;01.11.2021;10:29:22;Stop          ;04.12.2018;FEY;;LION;49;14500;7200;128;5;56;57;8400;3000;3813;3766;1;12675;26.54;30.64;28,6;BCS1388054;7;5
009649;01.11.2021;10:32:51;Charge to 60% ;04.12.2018;FEY;;LION;49;14500;7200;192;5;56;57;8400;3000;3724;3725;1;13029;26.64;28.54;29,7;BCS1388054;7;5
009649;01.11.2021;11:46:27;Stop          ;04.12.2018;FEY;;LION;49;14500;7200;192;5;58;60;8400;3000;3751;3752;1;13028;27.94;29.14;32,5;BCS1388054;7;5