File: reader/backup_20220209/Batterieverzeichnis/009667.txt
Serialnumber ; Date ; Time ; Action ; Date of Manufacture ; Manufacturer ; Battery Name ; Device-Chemistry ; Specification-Info ; Design-Capacity [mAh] ; Design-Voltage [mV] ; Battery Status ; Cycle Count ; SOC [%] ; Relativ SOC[%] ; Desired Voltage [mV]; Desired Current [mA]; Cell Voltage 1 [mV] ; Cell Voltage 2 [mV] ; Max_Error [%] ; Busvoltage[mV] ; Battery Temperature [°C] ; Charger Temperature [°C] ; Batterysystem ; Case ; PLace
009667;10.12.2019;15:28:48;Ladung auf 30% ;03.12.2018;FEY;;LION;49;14500;7200;224;48;94;100;8400;;4132;4130;1;13026;22.64;24.04;27,1;BCS1388054;3;14
009667;10.12.2019;20:47:21;Stop           ;03.12.2018;FEY;;LION;49;14500;7200;192;48;29;30;8400;3000;3470;3545;1;13020;34.54;40.34;33,5;BCS1388054;3;14
009667;11.12.2019;08:48:36;Fastcharge    ;03.12.2018;FEY;;LION;49;14500;7200;192;48;29;30;8400;3000;3566;3565;1;13021;26.34;27.94;31,9;BCS1388054;3;14
009667;11.12.2019;13:39:41;Stop           ;03.12.2018;FEY;;LION;49;14500;7200;224;48;95;100;8400;;4165;4164;1;13022;31.14;31.94;32,5;BCS1388054;3;14
009667;11.12.2019;15:46:24;Ladung auf 10% ;03.12.2018;FEY;;LION;49;14500;7200;224;48;97;100;8400;;4155;4154;1;13023;27.44;28.54;31,4;BCS1388054;3;14
009667;11.12.2019;22:48:44;Stop           ;03.12.2018;FEY;;LION;49;14500;7200;192;50;10;10;8400;3000;3339;3338;1;13020;35.54;40.44;33,6;BCS1388054;3;14
009667;12.12.2019;08:44:58;Normalcharge  ;03.12.2018;FEY;;LION;49;14500;7200;192;50;9;9;8400;3000;3361;3361;1;13022;26.54;28.14;31,9;BCS1388054;3;14
009667;12.12.2019;16:39:24;Stop           ;03.12.2018;FEY;;LION;49;14500;7200;224;50;97;100;8400;;4164;4165;1;13022;30.04;31.24;31,7;BCS1388054;3;14
009667;13.12.2019;10:47:57;Ladung auf 10% ;03.12.2018;FEY;;LION;49;14500;7200;224;50;97;100;8400;;4149;4150;1;13022;26.64;28.14;32,0;BCS1388054;3;14
009667;13.12.2019;15:42:18;Stop           ;03.12.2018;FEY;;LION;49;14500;7200;192;50;36;37;8400;3000;3505;3556;1;13557;33.74;41.14;34,6;BCS1388054;3;14
009667;13.12.2019;15:42:20;Cycle          ;03.12.2018;FEY;;LION;49;14500;7200;192;50;36;37;8400;3000;3504;3556;1;13019;33.74;41.14;34,6;BCS1388054;3;14
009667;14.12.2019;22:36:33;Stop           ;03.12.2018;FEY;;LION;49;14500;7200;224;52;94;100;8400;;4153;4152;1;13024;26.84;28.04;31,6;BCS1388054;3;14
009667;16.12.2019;07:43:10;Ladung auf 10% ;03.12.2018;FEY;;LION;49;14500;7200;224;52;93;99;8400;;4146;4145;1;13023;26.34;27.54;31,9;BCS1388054;3;14
009667;16.12.2019;14:34:27;Stop           ;03.12.2018;FEY;;LION;49;14500;7200;192;53;10;10;8400;3000;3364;3364;1;13021;33.84;35.94;32,5;BCS1388054;3;14
009667;16.12.2019;14:44:07;Ladung auf 90% ;03.12.2018;FEY;;LION;49;14500;7200;192;53;10;10;8400;3000;3369;3368;1;13022;33.04;32.24;31,7;BCS1388054;3;14
009667;16.12.2019;20:48:39;Stop           ;03.12.2018;FEY;;LION;49;14500;7200;128;53;85;90;8400;3000;4157;4107;1;13021;33.04;38.74;31,9;BCS1388054;3;14
009667;17.12.2019;08:37:45;Fastcharge    ;03.12.2018;FEY;;LION;49;14500;7200;192;53;85;90;8400;3000;4052;4051;1;13023;26.44;27.84;31,5;BCS1388054;3;14
009667;17.12.2019;10:30:44;Stop           ;03.12.2018;FEY;;LION;49;14500;7200;224;53;96;100;8400;;4159;4158;1;13023;28.34;29.84;31,4;BCS1388054;3;14
009667;17.12.2019;13:38:28;Ladung auf 10% ;03.12.2018;FEY;;LION;49;14500;7200;224;53;96;100;8400;;4150;4149;1;13023;26.84;28.14;30,8;BCS1388054;3;14
009667;17.12.2019;20:32:04;Stop           ;03.12.2018;FEY;;LION;49;14500;7200;192;54;10;10;8400;3000;3361;3360;1;13020;35.44;37.54;34,6;BCS1388054;3;14
009667;18.12.2019;08:31:22;Fastcharge    ;03.12.2018;FEY;;LION;49;14500;7200;192;54;10;10;8400;3000;3373;3373;1;13023;26.54;28.04;31,6;BCS1388054;3;14
009667;18.12.2019;14:26:33;Stop           ;03.12.2018;FEY;;LION;49;14500;7200;224;54;96;100;8400;;4163;4162;1;13023;31.14;31.54;32,5;BCS1388054;3;14
009667;19.12.2019;08:23:54;Ladung auf 60% ;03.12.2018;FEY;;LION;49;14500;7200;224;54;96;100;8400;;4150;4149;1;13022;26.44;27.84;31,6;BCS1388054;3;14
009667;19.12.2019;11:28:29;Stop           ;03.12.2018;FEY;;LION;49;14500;7200;192;54;58;60;8400;3000;3763;3762;1;13020;34.94;39.54;35,1;BCS1388054;3;14
009667;19.12.2019;12:16:41;Cycle          ;03.12.2018;FEY;;LION;49;14500;7200;192;54;58;60;8400;3000;3781;3781;1;13022;31.34;30.74;32,7;BCS1388054;3;14
009667;20.12.2019;17:23:28;Stop           ;03.12.2018;FEY;;LION;49;14500;7200;224;56;94;100;8400;;4153;4152;1;13023;27.04;28.14;31,9;BCS1388054;3;14
009667;06.01.2020;06:34:46;Ladung auf 60% ;03.12.2018;FEY;;LION;49;14500;7200;224;56;93;99;8400;;4123;4122;1;13023;26.64;27.94;31,9;BCS1388054;3;14
009667;06.01.2020;09:29:20;Stop           ;03.12.2018;FEY;;LION;49;14500;7200;192;56;57;60;8400;3000;3757;3756;1;13022;34.04;39.74;34,2;BCS1388054;3;14
009667;06.01.2020;09:50:34;Fastcharge    ;03.12.2018;FEY;;LION;49;14500;7200;192;56;57;60;8400;3000;3777;3777;1;13023;32.44;31.64;32,7;BCS1388054;3;14
009667;06.01.2020;13:06:26;Stop           ;03.12.2018;FEY;;LION;49;14500;7200;224;56;95;100;8400;;4163;4163;1;13022;30.64;31.34;32,1;BCS1388054;3;14