File: reader/backup_20220209/Batterieverzeichnis/009682.txt
Serialnumber ; Date ; Time ; Action ; Date of Manufacture ; Manufacturer ; Battery Name ; Device-Chemistry ; Specification-Info ; Design-Capacity [mAh] ; Design-Voltage [mV] ; Battery Status ; Cycle Count ; SOC [%] ; Relativ SOC[%] ; Desired Voltage [mV]; Desired Current [mA]; Cell Voltage 1 [mV] ; Cell Voltage 2 [mV] ; Max_Error [%] ; Busvoltage[mV] ; Battery Temperature [°C] ; Charger Temperature [°C] ; Batterysystem ; Case ; PLace
009682;07.02.2021;08:46:49;Normalcharge  ;04.12.2018;FEY;;LION;49;14500;7200;192;3;93;96;8400;;4095;4094;1;13000;23.64;26.44;29,2;BCS1388054;2;10
009682;07.02.2021;11:52:12;Stop          ;04.12.2018;FEY;;LION;49;14500;7200;192;3;93;96;8400;;4096;4095;1;13000;25.94;27.74;29,7;BCS1388054;2;10
009682;03.03.2021;08:17:40;Normalcharge  ;04.12.2018;FEY;;LION;49;14500;7200;192;3;65;67;8400;3000;3828;3826;1;12999;23.24;23.84;23,6;BCS1388054;6;18
009682;03.03.2021;11:56:52;Stop          ;04.12.2018;FEY;;LION;49;14500;7200;224;3;97;100;8400;;4161;4160;1;12992;28.04;29.84;31,7;BCS1388054;6;18
009682;04.04.2021;11:50:28;Normalcharge  ;04.12.2018;FEY;;LION;49;14500;7200;192;4;60;62;8400;3000;3766;3764;1;13004;25.14;25.34;27,9;BCS1388054;3;16
009682;04.04.2021;11:51:43;Stop           ;04.12.2018;FEY;;LION;49;14500;7200;128;4;60;62;8400;3000;3858;3810;1;12764;25.14;27.74;28,6;BCS1388054;3;16
009682;05.04.2021;09:37:37;Charge to 60% ;04.12.2018;FEY;;LION;49;14500;7200;192;4;60;62;8400;3000;3770;3768;1;12993;25.24;25.94;26,0;BCS1388054;1;1
009682;05.04.2021;10:01:53;Stop          ;04.12.2018;FEY;;LION;49;14500;7200;192;4;59;60;8400;3000;3742;3740;1;12992;26.14;28.84;31,2;BCS1388054;1;1
009682;22.08.2021;11:07:51;Normalcharge  ;04.12.2018;FEY;;LION;49;14500;7200;192;4;41;43;8400;3000;3608;3607;1;13000;22.74;29.24;32,0;BCS1388054;1;13
009682;22.08.2021;11:08:24;Stop          ;04.12.2018;FEY;;LION;49;14500;7200;128;4;41;43;8400;3000;3661;3631;1;12601;22.84;30.44;32,4;BCS1388054;1;13
009682;25.08.2021;08:15:02;Charge to 60% ;04.12.2018;FEY;;LION;49;14500;7200;192;4;41;42;8400;3000;3610;3609;1;13001;30.34;31.54;33,2;BCS1388054;5;11
009682;25.08.2021;13:03:31;Stop          ;04.12.2018;FEY;;LION;49;14500;7200;192;4;58;60;8400;3000;3735;3734;1;12999;32.84;33.74;36,6;BCS1388054;5;11
009682;28.12.2021;09:01:33;Normalcharge  ;04.12.2018;FEY;;LION;49;14500;7200;192;4;27;28;8400;3000;3517;3515;1;13001;23.84;24.14;25,4;BCS1388054;5;14
009682;28.12.2021;09:02:46;Stop          ;04.12.2018;FEY;;LION;49;14500;7200;128;4;27;28;8400;3000;3608;3559;1;12649;23.84;27.64;26,0;BCS1388054;5;14