File: reader/backup_20220209/Batterieverzeichnis/009676.txt
Serialnumber ; Date ; Time ; Action ; Date of Manufacture ; Manufacturer ; Battery Name ; Device-Chemistry ; Specification-Info ; Design-Capacity [mAh] ; Design-Voltage [mV] ; Battery Status ; Cycle Count ; SOC [%] ; Relativ SOC[%] ; Desired Voltage [mV]; Desired Current [mA]; Cell Voltage 1 [mV] ; Cell Voltage 2 [mV] ; Max_Error [%] ; Busvoltage[mV] ; Battery Temperature [°C] ; Charger Temperature [°C] ; Batterysystem ; Case ; PLace
009676;10.12.2019;15:28:47;Ladung auf 30% ;03.12.2018;FEY;;LION;49;14500;7200;224;48;92;100;8400;;4130;4129;1;13006;22.64;23.24;27,1;BCS1388054;3;11
009676;10.12.2019;20:47:21;Stop           ;03.12.2018;FEY;;LION;49;14500;7200;192;49;29;30;8400;3000;3557;3558;1;13004;33.44;31.94;33,5;BCS1388054;3;11
009676;11.12.2019;08:48:36;Fastcharge    ;03.12.2018;FEY;;LION;49;14500;7200;192;49;29;30;8400;3000;3566;3566;1;13005;26.14;26.34;31,9;BCS1388054;3;11
009676;11.12.2019;13:39:41;Stop           ;03.12.2018;FEY;;LION;49;14500;7200;224;49;94;100;8400;;4161;4162;1;13005;29.84;28.74;32,5;BCS1388054;3;11
009676;11.12.2019;15:46:24;Ladung auf 10% ;03.12.2018;FEY;;LION;49;14500;7200;224;49;96;100;8400;;4153;4153;1;13005;27.04;26.74;31,4;BCS1388054;3;11
009676;11.12.2019;22:48:44;Stop           ;03.12.2018;FEY;;LION;49;14500;7200;192;50;10;10;8400;3000;3351;3352;1;13005;34.14;32.34;33,6;BCS1388054;3;11
009676;12.12.2019;08:44:58;Normalcharge  ;03.12.2018;FEY;;LION;49;14500;7200;192;50;9;10;8400;3000;3361;3362;1;13006;26.44;26.44;31,9;BCS1388054;3;11
009676;12.12.2019;16:39:24;Stop           ;03.12.2018;FEY;;LION;49;14500;7200;224;50;95;100;8400;;4160;4161;1;13005;29.04;28.34;31,7;BCS1388054;3;11
009676;13.12.2019;10:47:57;Ladung auf 10% ;03.12.2018;FEY;;LION;49;14500;7200;224;50;95;100;8400;;4149;4149;1;13005;26.44;26.54;32,0;BCS1388054;3;11
009676;13.12.2019;15:42:18;Stop           ;03.12.2018;FEY;;LION;49;14500;7200;192;51;34;36;8400;3000;3498;3549;1;13550;32.94;35.64;34,6;BCS1388054;3;11
009676;13.12.2019;15:42:20;Cycle          ;03.12.2018;FEY;;LION;49;14500;7200;192;51;34;36;8400;3000;3498;3549;1;13003;32.94;35.64;34,6;BCS1388054;3;11
009676;14.12.2019;22:36:33;Stop           ;03.12.2018;FEY;;LION;49;14500;7200;224;52;93;99;8400;;4152;4152;1;13006;26.54;26.44;31,6;BCS1388054;3;11
009676;16.12.2019;07:43:10;Ladung auf 10% ;03.12.2018;FEY;;LION;49;14500;7200;224;52;93;100;8400;;4146;4146;1;13006;26.14;25.74;31,9;BCS1388054;3;11
009676;16.12.2019;14:34:27;Stop           ;03.12.2018;FEY;;LION;49;14500;7200;192;54;10;10;8400;3000;3364;3364;1;13005;32.74;31.04;32,5;BCS1388054;3;11
009676;16.12.2019;14:44:07;Ladung auf 90% ;03.12.2018;FEY;;LION;49;14500;7200;192;54;10;10;8400;3000;3366;3366;1;13007;31.94;29.74;31,7;BCS1388054;3;11
009676;16.12.2019;20:48:39;Stop           ;03.12.2018;FEY;;LION;49;14500;7200;192;54;84;90;8400;3000;4055;4056;1;13006;31.54;30.04;31,9;BCS1388054;3;11
009676;17.12.2019;08:37:44;Fastcharge    ;03.12.2018;FEY;;LION;49;14500;7200;192;54;84;90;8400;3000;4045;4046;1;13006;26.24;26.24;31,5;BCS1388054;3;11
009676;17.12.2019;10:30:44;Stop           ;03.12.2018;FEY;;LION;49;14500;7200;224;54;94;100;8400;;4163;4163;1;13006;27.84;27.64;31,4;BCS1388054;3;11
009676;17.12.2019;13:38:28;Ladung auf 10% ;03.12.2018;FEY;;LION;49;14500;7200;224;54;94;100;8400;;4150;4150;1;13006;26.54;26.44;30,8;BCS1388054;3;11
009676;17.12.2019;20:32:04;Stop           ;03.12.2018;FEY;;LION;49;14500;7200;192;55;10;10;8400;3000;3361;3362;1;13007;34.14;32.44;34,6;BCS1388054;3;11
009676;18.12.2019;08:31:22;Fastcharge    ;03.12.2018;FEY;;LION;49;14500;7200;192;55;10;10;8400;3000;3371;3372;1;13006;26.34;26.44;31,6;BCS1388054;3;11
009676;18.12.2019;14:26:33;Stop           ;03.12.2018;FEY;;LION;49;14500;7200;224;55;94;100;8400;;4160;4160;1;13006;29.94;28.84;32,5;BCS1388054;3;11
009676;19.12.2019;08:23:54;Ladung auf 60% ;03.12.2018;FEY;;LION;49;14500;7200;224;55;95;100;8400;;4149;4148;1;13005;26.24;26.24;31,6;BCS1388054;3;11
009676;19.12.2019;11:28:29;Stop           ;03.12.2018;FEY;;LION;49;14500;7200;192;55;57;60;8400;3000;3763;3765;1;13004;34.04;33.34;35,1;BCS1388054;3;11
009676;19.12.2019;12:16:41;Cycle          ;03.12.2018;FEY;;LION;49;14500;7200;192;55;57;60;8400;3000;3774;3777;1;13005;30.44;28.74;32,7;BCS1388054;3;11
009676;20.12.2019;17:23:28;Stop           ;03.12.2018;FEY;;LION;49;14500;7200;224;56;93;100;8400;;4152;4152;1;13006;26.64;26.64;31,9;BCS1388054;3;11
009676;06.01.2020;06:34:46;Ladung auf 60% ;03.12.2018;FEY;;LION;49;14500;7200;224;56;92;99;8400;;4122;4122;1;13006;26.34;26.24;31,9;BCS1388054;3;11
009676;06.01.2020;09:29:20;Stop           ;03.12.2018;FEY;;LION;49;14500;7200;192;56;56;60;8400;3000;3762;3764;1;13006;33.24;32.54;34,2;BCS1388054;3;11
009676;06.01.2020;09:50:34;Fastcharge    ;03.12.2018;FEY;;LION;49;14500;7200;192;56;56;60;8400;3000;3771;3775;1;13006;31.64;29.44;32,7;BCS1388054;3;11
009676;06.01.2020;13:06:26;Stop           ;03.12.2018;FEY;;LION;49;14500;7200;224;56;94;100;8400;;4161;4161;1;13007;29.44;28.44;32,1;BCS1388054;3;11