File: reader/backup_20220209/Batterieverzeichnis/009621.txt
Serialnumber ; Date ; Time ; Action ; Date of Manufacture ; Manufacturer ; Battery Name ; Device-Chemistry ; Specification-Info ; Design-Capacity [mAh] ; Design-Voltage [mV] ; Battery Status ; Cycle Count ; SOC [%] ; Relativ SOC[%] ; Desired Voltage [mV]; Desired Current [mA]; Cell Voltage 1 [mV] ; Cell Voltage 2 [mV] ; Max_Error [%] ; Busvoltage[mV] ; Battery Temperature [°C] ; Charger Temperature [°C] ; Batterysystem ; Case ; PLace
009621;10.12.2019;15:29:09;Charge to 30% ;03.12.2018;FEY;;LION;49;14500;7200;224;25;94;99;8400;;4117;4117;1;13014;22.84;24.64;27,1;BCS1388054;6;1
009621;10.12.2019;20:46:41;Stop          ;03.12.2018;FEY;;LION;49;14500;7200;192;26;29;30;8400;3000;3545;3544;1;13013;32.34;36.34;33,6;BCS1388054;6;1
009621;11.12.2019;08:49:03;Fastcharge    ;03.12.2018;FEY;;LION;49;14500;7200;192;26;29;30;8400;3000;3565;3565;1;13012;26.44;28.04;31,9;BCS1388054;6;1
009621;11.12.2019;13:39:30;Stop          ;03.12.2018;FEY;;LION;49;14500;7200;224;26;96;100;8400;;4163;4163;1;13013;29.04;30.34;32,5;BCS1388054;6;1
009621;11.12.2019;15:46:47;Charge to 10% ;03.12.2018;FEY;;LION;49;14500;7200;224;26;98;100;8400;;4153;4153;1;13013;27.04;28.34;31,4;BCS1388054;6;1
009621;11.12.2019;22:52:10;Stop          ;03.12.2018;FEY;;LION;49;14500;7200;192;27;10;10;8400;3000;3346;3346;1;13012;32.94;33.74;33,0;BCS1388054;6;1
009621;12.12.2019;08:45:18;Normalcharge  ;03.12.2018;FEY;;LION;49;14500;7200;192;27;9;9;8400;3000;3360;3360;1;13013;26.64;28.14;31,7;BCS1388054;6;1
009621;12.12.2019;16:41:29;Stop          ;03.12.2018;FEY;;LION;49;14500;7200;224;27;97;100;8400;;4164;4164;1;13013;28.54;29.94;31,5;BCS1388054;6;1
009621;13.12.2019;10:48:09;Charge to 10% ;03.12.2018;FEY;;LION;49;14500;7200;224;27;97;100;8400;;4150;4150;1;13012;26.64;28.24;32,0;BCS1388054;6;1
009621;13.12.2019;13:51:54;Stop          ;03.12.2018;FEY;;LION;49;14500;7200;192;28;59;61;8400;3000;3685;3736;1;13487;33.64;39.14;36,1;BCS1388054;6;1
009621;13.12.2019;13:53:13;Fastcharge    ;03.12.2018;FEY;;LION;49;14500;7200;192;28;59;61;8400;3000;3772;3772;1;13015;33.64;36.64;35,8;BCS1388054;6;1
009621;13.12.2019;13:53:19;Stop          ;03.12.2018;FEY;;LION;49;14500;7200;192;28;59;61;8400;3000;3773;3773;1;13006;33.64;36.44;35,8;BCS1388054;6;1
009621;13.12.2019;13:53:25;Normalcharge  ;03.12.2018;FEY;;LION;49;14500;7200;192;28;59;61;8400;3000;3773;3773;1;13015;33.64;36.44;35,8;BCS1388054;6;1
009621;13.12.2019;20:04:59;Stop          ;03.12.2018;FEY;;LION;49;14500;7200;224;28;97;100;8400;;4153;4153;1;13017;27.74;29.14;32,0;BCS1388054;6;1
009621;16.12.2019;07:43:27;Charge to 10% ;03.12.2018;FEY;;LION;49;14500;7200;224;28;97;100;8400;;4145;4145;1;13018;26.34;27.24;31,7;BCS1388054;6;1
009621;16.12.2019;14:43:10;Stop          ;03.12.2018;FEY;;LION;49;14500;7200;192;29;10;10;8400;3000;3343;3344;1;13017;31.04;32.84;31,7;BCS1388054;6;1
009621;16.12.2019;14:44:21;Charge to 90% ;03.12.2018;FEY;;LION;49;14500;7200;192;29;10;10;8400;3000;3348;3348;1;13018;30.94;31.34;31,9;BCS1388054;6;1
009621;16.12.2019;20:54:26;Stop          ;03.12.2018;FEY;;LION;49;14500;7200;128;29;86;90;8400;3000;4062;4065;1;13019;30.84;33.14;32,1;BCS1388054;6;1
009621;17.12.2019;08:37:57;Fastcharge    ;03.12.2018;FEY;;LION;49;14500;7200;192;29;86;90;8400;3000;4041;4042;1;13017;26.44;27.94;31,6;BCS1388054;6;1
009621;17.12.2019;13:38:40;Charge to 10% ;03.12.2018;FEY;;LION;49;14500;7200;224;29;97;100;8400;;4151;4151;1;13018;26.74;27.94;30,8;BCS1388054;6;1
009621;17.12.2019;20:41:40;Stop          ;03.12.2018;FEY;;LION;49;14500;7200;192;30;10;10;8400;3000;3344;3344;1;13018;32.84;34.14;32,6;BCS1388054;6;1
009621;18.12.2019;08:31:34;Fastcharge    ;03.12.2018;FEY;;LION;49;14500;7200;192;30;9;9;8400;3000;3361;3361;1;13018;26.64;28.04;31,6;BCS1388054;6;1
009621;18.12.2019;14:33:31;Stop          ;03.12.2018;FEY;;LION;49;14500;7200;224;30;96;100;8400;;4162;4161;1;13018;29.04;29.64;31,4;BCS1388054;6;1
009621;19.12.2019;08:24:06;Charge to 60% ;03.12.2018;FEY;;LION;49;14500;7200;224;30;97;100;8400;;4149;4148;1;13018;26.44;28.04;31,5;BCS1388054;6;1
009621;19.12.2019;11:34:24;Stop          ;03.12.2018;FEY;;LION;49;14500;7200;192;31;58;60;8400;3000;3775;3774;1;13017;32.64;32.74;33,5;BCS1388054;6;1
009621;19.12.2019;12:16:53;Cycle         ;03.12.2018;FEY;;LION;49;14500;7200;192;31;58;60;8400;3000;3784;3784;1;13018;29.44;29.84;32,7;BCS1388054;6;1
009621;20.12.2019;17:31:05;Stop          ;03.12.2018;FEY;;LION;49;14500;7200;224;32;95;100;8400;;4153;4153;1;13018;26.64;27.84;30,6;BCS1388054;6;1
009621;06.01.2020;06:34:58;Charge to 60% ;03.12.2018;FEY;;LION;49;14500;7200;224;32;94;99;8400;;4122;4122;1;13018;26.74;28.04;31,9;BCS1388054;6;1
009621;06.01.2020;09:30:42;Stop          ;03.12.2018;FEY;;LION;49;14500;7200;192;32;58;60;8400;3000;3677;3728;1;13019;32.14;36.64;33,7;BCS1388054;6;1
009621;06.01.2020;09:50:46;Fastcharge    ;03.12.2018;FEY;;LION;49;14500;7200;192;32;58;60;8400;3000;3780;3780;1;13019;30.54;30.34;32,7;BCS1388054;6;1
009621;06.01.2020;13:06:22;Stop          ;03.12.2018;FEY;;LION;49;14500;7200;224;32;96;100;8400;;4162;4162;1;13020;28.74;29.94;32,1;BCS1388054;6;1