File: reader/backup_20220209/Batterieverzeichnis/009742.txt
Serialnumber ; Date ; Time ; Action ; Date of Manufacture ; Manufacturer ; Battery Name ; Device-Chemistry ; Specification-Info ; Design-Capacity [mAh] ; Design-Voltage [mV] ; Battery Status ; Cycle Count ; SOC [%] ; Relativ SOC[%] ; Desired Voltage [mV]; Desired Current [mA]; Cell Voltage 1 [mV] ; Cell Voltage 2 [mV] ; Max_Error [%] ; Busvoltage[mV] ; Battery Temperature [°C] ; Charger Temperature [°C] ; Batterysystem ; Case ; PLace
009742;01.12.2020;07:00:16;Cycle         ;04.12.2018;FEY;;LION;49;14500;7200;16576;3;98;100;;;4144;4143;1;13000;25.74;25.34;26,7;BCS1388054;1;4
009742;01.12.2020;11:17:17;Stop          ;04.12.2018;FEY;;LION;49;14500;7200;16576;3;98;100;;;4143;4142;1;12994;26.94;27.64;28,8;BCS1388054;1;4
009742;12.01.2021;04:17:40;Charge to 90% ;04.12.2018;FEY;;LION;49;14500;7200;16576;3;96;99;;;4126;4125;1;13009;23.34;22.84;23,6;BCS1388054;6;5
009742;12.01.2021;05:00:55;Stop          ;04.12.2018;FEY;;LION;49;14500;7200;192;3;83;90;8400;3000;4039;4036;1;13003;27.84;27.34;31,2;BCS1388054;6;5
009742;12.01.2021;05:21:57;Cycle         ;04.12.2018;FEY;;LION;49;14500;7200;192;3;83;90;8400;3000;4045;4043;1;13004;27.54;26.34;30,4;BCS1388054;6;5
009742;13.01.2021;08:31:18;Stop          ;04.12.2018;FEY;;LION;49;14500;7200;224;5;95;100;8400;;4154;4154;1;13004;27.04;26.44;31,1;BCS1388054;6;5
009742;21.02.2021;13:43:49;Normalcharge  ;04.12.2018;FEY;;LION;49;14500;7200;224;5;94;99;8400;;4131;4130;1;13007;23.14;22.34;27,7;BCS1388054;3;16
009742;21.02.2021;20:44:52;Stop           ;04.12.2018;FEY;;LION;49;14500;7200;224;5;94;99;8400;;4131;4130;1;13001;26.94;26.84;31,2;BCS1388054;3;16
009742;06.04.2021;08:39:16;Normalcharge  ;04.12.2018;FEY;;LION;49;14500;7200;192;5;93;98;8400;;4115;4115;1;13016;21.64;26.04;28,1;BCS1388054;6;15
009742;06.04.2021;08:40:04;Stop          ;04.12.2018;FEY;;LION;49;14500;7200;192;5;93;98;8400;;4115;4114;1;12995;21.74;26.24;28,5;BCS1388054;6;15
009742;08.04.2021;07:58:44;Normalcharge  ;04.12.2018;FEY;;LION;49;14500;7200;192;5;93;98;8400;;4115;4115;1;13020;25.44;25.54;26,4;BCS1388054;6;15
009742;08.04.2021;07:59:23;Stop          ;04.12.2018;FEY;;LION;49;14500;7200;192;5;93;98;8400;;4115;4115;1;13018;25.44;26.14;26,7;BCS1388054;6;15
009742;08.04.2021;10:36:16;Normalcharge  ;04.12.2018;FEY;;LION;49;14500;7200;192;5;93;98;8400;;4115;4114;1;13017;25.64;26.74;28,6;BCS1388054;6;15
009742;08.04.2021;10:37:11;Stop          ;04.12.2018;FEY;;LION;49;14500;7200;192;5;93;98;8400;;4115;4114;1;12995;25.64;27.14;29,2;BCS1388054;6;15
009742;18.04.2021;08:34:33;Normalcharge  ;04.12.2018;FEY;;LION;49;14500;7200;192;5;93;97;8400;;4112;4111;1;13016;26.34;27.54;28,2;BCS1388054;6;15
009742;18.04.2021;08:34:41;Stop          ;04.12.2018;FEY;;LION;49;14500;7200;192;5;93;97;8400;;4112;4111;1;13015;26.34;27.64;28,2;BCS1388054;6;15
009742;04.08.2021;07:24:35;Normalcharge  ;04.12.2018;FEY;;LION;49;14500;7200;192;5;91;96;8400;;4084;4084;1;13011;30.44;31.14;31,5;BCS1388054;6;15
009742;04.08.2021;07:25:17;Stop          ;04.12.2018;FEY;;LION;49;14500;7200;192;5;91;96;8400;;4084;4084;1;12995;30.44;31.54;31,6;BCS1388054;6;15
009742;22.08.2021;11:37:21;Normalcharge  ;04.12.2018;FEY;;LION;49;14500;7200;192;5;87;90;8400;3000;4036;4034;1;12996;21.64;28.04;31,9;BCS1388054;5;14
009742;22.08.2021;11:38:04;Stop          ;04.12.2018;FEY;;LION;49;14500;7200;128;5;87;90;8400;3000;4101;4069;1;12758;21.84;29.64;32,0;BCS1388054;5;14
009742;14.10.2021;12:40:22;Normalcharge  ;04.12.2018;FEY;;LION;49;14500;7200;192;5;42;43;8400;3000;3612;3610;1;13033;23.74;25.64;28,1;BCS1388054;7;14
009742;14.10.2021;12:42:05;Stop          ;04.12.2018;FEY;;LION;49;14500;7200;128;5;42;44;8400;3000;3703;3655;1;12733;23.84;29.84;28,5;BCS1388054;7;14
009742;01.11.2021;09:51:48;Normalcharge  ;04.12.2018;FEY;;LION;49;14500;7200;192;5;42;43;8400;3000;3612;3611;1;13036;26.14;25.34;26,3;BCS1388054;7;14
009742;01.11.2021;09:53:51;Stop          ;04.12.2018;FEY;;LION;49;14500;7200;128;5;42;44;8400;3000;3702;3653;1;12677;26.24;29.94;27,4;BCS1388054;7;14
009742;01.11.2021;10:02:29;Normalcharge  ;04.12.2018;FEY;;LION;49;14500;7200;192;5;42;44;8400;3000;3615;3613;1;13030;26.34;27.64;29,5;BCS1388054;7;14
009742;01.11.2021;10:03:04;Stop          ;04.12.2018;FEY;;LION;49;14500;7200;128;5;42;44;8400;3000;3677;3640;1;12704;26.34;28.94;29,3;BCS1388054;7;14
009742;01.11.2021;10:27:23;Normalcharge  ;04.12.2018;FEY;;LION;49;14500;7200;192;5;42;44;8400;3000;3615;3613;1;13033;26.54;26.14;27,7;BCS1388054;7;14
009742;01.11.2021;10:29:22;Stop          ;04.12.2018;FEY;;LION;49;14500;7200;128;5;42;44;8400;3000;3704;3655;1;12678;26.64;30.64;28,6;BCS1388054;7;14
009742;01.11.2021;10:32:51;Charge to 60% ;04.12.2018;FEY;;LION;49;14500;7200;192;5;42;44;8400;3000;3618;3617;1;13032;26.74;28.04;29,7;BCS1388054;7;14
009742;01.11.2021;11:46:27;Stop          ;04.12.2018;FEY;;LION;49;14500;7200;128;5;58;60;8400;3000;3833;3783;1;13031;30.34;35.54;32,5;BCS1388054;7;14