File: reader/backup_20220209/Batterieverzeichnis/009710.txt
Serialnumber ; Date ; Time ; Action ; Date of Manufacture ; Manufacturer ; Battery Name ; Device-Chemistry ; Specification-Info ; Design-Capacity [mAh] ; Design-Voltage [mV] ; Battery Status ; Cycle Count ; SOC [%] ; Relativ SOC[%] ; Desired Voltage [mV]; Desired Current [mA]; Cell Voltage 1 [mV] ; Cell Voltage 2 [mV] ; Max_Error [%] ; Busvoltage[mV] ; Battery Temperature [°C] ; Charger Temperature [°C] ; Batterysystem ; Case ; PLace
009710;07.12.2020;04:14:40;Cycle         ;04.12.2018;FEY;;LION;49;14500;7200;192;2;97;96;8400;;4120;4120;1;13016;25.84;27.54;30,3;BCS1388054;7;10
009710;08.12.2020;16:20:20;Stop          ;04.12.2018;FEY;;LION;49;14500;7200;192;2;98;96;8400;;4118;4118;1;13017;27.74;28.84;31,9;BCS1388054;7;10
009710;12.01.2021;04:17:47;Charge to 90% ;04.12.2018;FEY;;LION;49;14500;7200;192;3;91;89;8400;3000;4046;4046;1;13014;23.24;23.64;23,8;BCS1388054;7;9
009710;12.01.2021;04:57:20;Stop          ;04.12.2018;FEY;;LION;49;14500;7200;192;3;91;90;8400;3000;4047;4047;1;13009;25.64;28.54;31,5;BCS1388054;7;9
009710;12.01.2021;05:22:01;Cycle         ;04.12.2018;FEY;;LION;49;14500;7200;192;3;91;90;8400;3000;4047;4047;1;13009;26.44;27.24;30,4;BCS1388054;7;9
009710;13.01.2021;08:19:29;Stop          ;04.12.2018;FEY;;LION;49;14500;7200;224;4;98;100;8400;;4155;4156;1;13011;26.84;27.34;30,7;BCS1388054;7;9
009710;21.02.2021;13:45:29;Normalcharge  ;04.12.2018;FEY;;LION;49;14500;7200;192;5;39;40;8400;3000;3599;3599;1;12999;23.04;23.64;27,8;BCS1388054;6;18
009710;06.04.2021;08:38:40;Normalcharge  ;04.12.2018;FEY;;LION;49;14500;7200;224;5;98;99;8400;;4127;4126;1;13011;21.54;26.04;28,1;BCS1388054;1;6
009710;06.04.2021;08:39:29;Stop          ;04.12.2018;FEY;;LION;49;14500;7200;224;5;98;99;8400;;4127;4126;1;13010;21.64;26.44;28,2;BCS1388054;1;6
009710;08.04.2021;07:57:52;Normalcharge  ;04.12.2018;FEY;;LION;49;14500;7200;224;5;98;99;8400;;4127;4126;1;13012;25.44;26.14;26,3;BCS1388054;1;6
009710;08.04.2021;07:59:50;Stop          ;04.12.2018;FEY;;LION;49;14500;7200;224;5;98;99;8400;;4127;4126;1;12950;25.44;26.74;26,8;BCS1388054;1;6
009710;08.04.2021;10:34:34;Normalcharge  ;04.12.2018;FEY;;LION;49;14500;7200;224;5;98;99;8400;;4127;4126;1;13007;26.24;27.24;28,1;BCS1388054;1;6
009710;08.04.2021;10:36:49;Stop          ;04.12.2018;FEY;;LION;49;14500;7200;224;5;98;99;8400;;4127;4126;1;12891;26.24;27.54;28,9;BCS1388054;1;6
009710;18.04.2021;08:33:24;Normalcharge  ;04.12.2018;FEY;;LION;49;14500;7200;192;5;97;98;8400;;4123;4122;1;13009;26.44;27.34;27,7;BCS1388054;1;6
009710;18.04.2021;08:33:29;Stop          ;04.12.2018;FEY;;LION;49;14500;7200;192;5;97;98;8400;;4123;4122;1;13007;26.44;27.44;27,7;BCS1388054;1;6
009710;04.08.2021;07:25:01;Normalcharge  ;04.12.2018;FEY;;LION;49;14500;7200;192;5;95;96;8400;;4091;4090;1;13002;30.74;31.84;31,5;BCS1388054;1;6
009710;04.08.2021;07:25:57;Stop          ;04.12.2018;FEY;;LION;49;14500;7200;192;5;95;96;8400;;4091;4090;1;12789;30.74;31.94;31,9;BCS1388054;1;6
009710;22.08.2021;11:07:59;Normalcharge  ;04.12.2018;FEY;;LION;49;14500;7200;192;5;72;73;8400;3000;3869;3869;1;12989;22.64;29.94;32,1;BCS1388054;3;8
009710;22.08.2021;11:08:33;Stop           ;04.12.2018;FEY;;LION;49;14500;7200;128;5;72;73;8400;3000;3928;3895;1;12686;22.74;31.04;32,4;BCS1388054;3;8
009710;12.10.2021;12:59:04;Normalcharge  ;04.12.2018;FEY;;LION;49;14500;7200;192;5;69;70;8400;3000;3836;3836;1;13018;23.74;26.74;28,5;BCS1388054;7;7
009710;12.10.2021;12:59:37;Stop          ;04.12.2018;FEY;;LION;49;14500;7200;128;5;69;70;8400;3000;3855;3846;1;12940;23.84;28.04;28,6;BCS1388054;7;7
009710;14.10.2021;12:40:07;Normalcharge  ;04.12.2018;FEY;;LION;49;14500;7200;192;5;69;70;8400;3000;3836;3835;1;13006;25.44;25.94;27,9;BCS1388054;4;8
009710;14.10.2021;12:41:43;Stop          ;04.12.2018;FEY;;LION;49;14500;7200;128;5;70;70;8400;3000;3928;3882;1;12669;25.44;29.64;28,4;BCS1388054;4;8