File: reader/backup_20220209/Batterieverzeichnis/009824.txt
Serialnumber ; Date ; Time ; Action ; Date of Manufacture ; Manufacturer ; Battery Name ; Device-Chemistry ; Specification-Info ; Design-Capacity [mAh] ; Design-Voltage [mV] ; Battery Status ; Cycle Count ; SOC [%] ; Relativ SOC[%] ; Desired Voltage [mV]; Desired Current [mA]; Cell Voltage 1 [mV] ; Cell Voltage 2 [mV] ; Max_Error [%] ; Busvoltage[mV] ; Battery Temperature [°C] ; Charger Temperature [°C] ; Batterysystem ; Case ; PLace
009824;12.01.2021;04:17:28;Ladung auf 90% ;04.12.2018;FEY;;LION;49;14500;7200;16576;2;97;98;;;4138;4138;1;13006;23.14;23.54;23,6;BCS1388054;3;12
009824;12.01.2021;04:57:30;Stop           ;04.12.2018;FEY;;LION;49;14500;7200;192;2;90;90;8400;3000;4056;4056;1;13001;28.14;28.64;31,5;BCS1388054;3;12
009824;12.01.2021;05:21:45;Cycle          ;04.12.2018;FEY;;LION;49;14500;7200;192;2;90;90;8400;3000;4063;4063;1;13002;27.54;27.44;30,4;BCS1388054;3;12
009824;13.01.2021;08:23:25;Stop           ;04.12.2018;FEY;;LION;49;14500;7200;224;3;96;100;8400;;4155;4155;1;13002;27.04;27.44;31,4;BCS1388054;3;12
009824;21.02.2021;13:45:29;Normalcharge  ;04.12.2018;FEY;;LION;49;14500;7200;192;3;63;65;8400;3000;3804;3803;1;13000;23.24;22.44;27,8;BCS1388054;6;6
009824;06.04.2021;08:38:50;Normalcharge  ;04.12.2018;FEY;;LION;49;14500;7200;224;3;95;99;8400;;4128;4128;1;13010;20.64;25.94;28,1;BCS1388054;3;13
009824;06.04.2021;08:39:42;Stop           ;04.12.2018;FEY;;LION;49;14500;7200;224;3;95;99;8400;;4128;4128;1;13007;20.74;26.14;28,2;BCS1388054;3;13
009824;08.04.2021;07:58:01;Normalcharge  ;04.12.2018;FEY;;LION;49;14500;7200;224;3;95;99;8400;;4128;4128;1;13016;25.34;26.14;26,4;BCS1388054;3;13
009824;08.04.2021;07:59:40;Stop           ;04.12.2018;FEY;;LION;49;14500;7200;224;3;95;99;8400;;4128;4128;1;13012;25.34;26.74;26,8;BCS1388054;3;13
009824;08.04.2021;10:35:05;Normalcharge  ;04.12.2018;FEY;;LION;49;14500;7200;224;3;95;99;8400;;4129;4128;1;13011;25.74;26.54;28,1;BCS1388054;3;13
009824;08.04.2021;10:36:56;Stop           ;04.12.2018;FEY;;LION;49;14500;7200;224;3;95;99;8400;;4128;4128;1;13009;25.74;27.14;29,0;BCS1388054;3;13
009824;18.04.2021;08:33:50;Normalcharge  ;04.12.2018;FEY;;LION;49;14500;7200;224;3;95;99;8400;;4125;4124;1;13012;26.24;27.54;27,8;BCS1388054;3;13
009824;18.04.2021;08:33:58;Stop           ;04.12.2018;FEY;;LION;49;14500;7200;224;3;95;99;8400;;4125;4124;1;13013;26.24;27.54;27,9;BCS1388054;3;13
009824;04.08.2021;07:24:50;Normalcharge  ;04.12.2018;FEY;;LION;49;14500;7200;192;3;92;96;8400;;4093;4093;1;13003;30.44;31.74;31,6;BCS1388054;3;13
009824;04.08.2021;07:25:37;Stop           ;04.12.2018;FEY;;LION;49;14500;7200;192;3;92;96;8400;;4093;4093;1;13001;30.54;32.04;31,7;BCS1388054;3;13
009824;22.08.2021;11:37:13;Normalcharge  ;04.12.2018;FEY;;LION;49;14500;7200;192;3;92;96;8400;;4089;4088;1;13025;23.24;29.14;31,9;BCS1388054;7;4
009824;22.08.2021;11:37:48;Stop          ;04.12.2018;FEY;;LION;49;14500;7200;192;3;92;96;8400;;4088;4088;1;13005;23.34;29.44;31,9;BCS1388054;7;4
009824;14.10.2021;12:40:22;Normalcharge  ;04.12.2018;FEY;;LION;49;14500;7200;192;3;85;89;8400;3000;4026;4026;1;13026;23.74;26.14;28,1;BCS1388054;7;18
009824;14.10.2021;12:42:05;Stop          ;04.12.2018;FEY;;LION;49;14500;7200;128;3;85;89;8400;3000;4112;4074;1;12722;24.04;29.44;28,5;BCS1388054;7;18
009824;28.12.2021;09:01:29;Normalcharge  ;04.12.2018;FEY;;LION;49;14500;7200;192;3;66;68;8400;3000;3828;3827;1;13002;23.54;23.94;25,4;BCS1388054;4;14
009824;28.12.2021;09:02:38;Stop          ;04.12.2018;FEY;;LION;49;14500;7200;128;3;66;68;8400;3000;3919;3872;1;12584;23.64;27.14;25,8;BCS1388054;4;14