File: reader/backup_20220209/Batterieverzeichnis/009853.txt
Serialnumber ; Date ; Time ; Action ; Date of Manufacture ; Manufacturer ; Battery Name ; Device-Chemistry ; Specification-Info ; Design-Capacity [mAh] ; Design-Voltage [mV] ; Battery Status ; Cycle Count ; SOC [%] ; Relativ SOC[%] ; Desired Voltage [mV]; Desired Current [mA]; Cell Voltage 1 [mV] ; Cell Voltage 2 [mV] ; Max_Error [%] ; Busvoltage[mV] ; Battery Temperature [°C] ; Charger Temperature [°C] ; Batterysystem ; Case ; PLace
009853;07.12.2020;04:14:40;Cycle         ;04.12.2018;FEY;;LION;49;14500;7200;16576;2;94;95;;;4094;4095;1;13033;25.64;27.14;30,3;BCS1388054;7;14
009853;08.12.2020;16:20:20;Stop          ;04.12.2018;FEY;;LION;49;14500;7200;16576;2;94;95;;;4094;4094;1;13031;27.74;28.54;31,9;BCS1388054;7;14
009853;07.02.2021;08:47:07;Normalcharge  ;04.12.2018;FEY;;LION;49;14500;7200;192;2;84;85;8400;3000;4000;4001;1;13005;23.54;26.04;29,2;BCS1388054;5;3
009853;07.02.2021;11:50:11;Stop          ;04.12.2018;FEY;;LION;49;14500;7200;224;2;99;100;8400;;4153;4153;1;13004;25.84;27.54;30,0;BCS1388054;5;3
009853;03.03.2021;08:17:17;Normalcharge  ;04.12.2018;FEY;;LION;49;14500;7200;192;2;93;95;8400;3000;4091;4091;1;13014;23.14;24.24;23,5;BCS1388054;2;5
009853;04.03.2021;07:53:46;Stop          ;04.12.2018;FEY;;LION;49;14500;7200;224;2;98;100;8400;;4147;4147;1;13007;26.34;28.04;31,6;BCS1388054;2;5
009853;04.04.2021;11:50:22;Normalcharge  ;04.12.2018;FEY;;LION;49;14500;7200;192;3;53;55;8400;3000;3697;3697;1;13016;24.94;26.04;27,9;BCS1388054;4;4
009853;04.04.2021;11:51:36;Stop          ;04.12.2018;FEY;;LION;49;14500;7200;128;3;53;55;8400;3000;3784;3737;1;12738;24.94;28.94;28,6;BCS1388054;4;4
009853;05.04.2021;09:38:00;Ladung auf 60% ;04.12.2018;FEY;;LION;49;14500;7200;192;3;53;55;8400;3000;3699;3699;1;13019;25.14;25.44;26,3;BCS1388054;3;14
009853;05.04.2021;10:06:07;Stop           ;04.12.2018;FEY;;LION;49;14500;7200;192;3;58;60;8400;3000;3764;3760;1;13014;27.14;29.94;31,4;BCS1388054;3;14
009853;22.08.2021;11:08:13;Normalcharge  ;04.12.2018;FEY;;LION;49;14500;7200;192;3;54;55;8400;3000;3703;3702;1;12994;29.94;29.74;32,2;BCS1388054;6;6
009853;22.08.2021;11:08:46;Stop          ;04.12.2018;FEY;;LION;49;14500;7200;128;3;54;55;8400;3000;3735;3716;1;12804;29.94;30.74;32,5;BCS1388054;6;6
009853;25.08.2021;08:13:04;Normalcharge  ;04.12.2018;FEY;;LION;49;14500;7200;192;3;53;55;8400;3000;3694;3694;1;13022;30.44;32.24;32,4;BCS1388054;7;8
009853;25.08.2021;08:13:16;Stop          ;04.12.2018;FEY;;LION;49;14500;7200;192;3;53;55;8400;3000;3694;3694;1;13012;30.44;32.54;32,5;BCS1388054;7;8
009853;25.08.2021;08:14:41;Charge to 60% ;04.12.2018;FEY;;LION;49;14500;7200;192;3;53;55;8400;3000;3695;3694;1;13021;30.44;32.54;33,0;BCS1388054;7;8
009853;25.08.2021;08:37:46;Stop          ;04.12.2018;FEY;;LION;49;14500;7200;128;3;57;59;8400;3000;3849;3797;1;12758;32.34;40.04;36,1;BCS1388054;7;8
009853;25.08.2021;08:38:03;Charge to 60% ;04.12.2018;FEY;;LION;49;14500;7200;128;3;58;59;8400;3000;3767;3767;1;13019;32.34;39.04;36,1;BCS1388054;7;8
009853;25.08.2021;13:26:36;Stop          ;04.12.2018;FEY;;LION;49;14500;7200;192;3;58;60;8400;3000;3754;3751;1;13020;32.84;34.84;36,4;BCS1388054;7;8
009853;01.11.2021;09:52:10;Normalcharge  ;04.12.2018;FEY;;LION;49;14500;7200;192;3;51;53;8400;3000;3678;3678;1;13003;24.44;24.64;26,4;BCS1388054;3;7
009853;01.11.2021;09:53:26;Stop           ;04.12.2018;FEY;;LION;49;14500;7200;128;3;51;53;8400;3000;3767;3721;1;12622;24.54;27.84;27,1;BCS1388054;3;7
009853;01.11.2021;10:02:09;Normalcharge  ;04.12.2018;FEY;;LION;49;14500;7200;192;3;51;53;8400;3000;3681;3681;1;12997;24.84;27.14;29,5;BCS1388054;3;7
009853;01.11.2021;10:03:20;Stop           ;04.12.2018;FEY;;LION;49;14500;7200;128;3;51;53;8400;3000;3769;3724;1;12615;24.94;29.64;29,5;BCS1388054;3;7
009853;01.11.2021;10:18:16;Normalcharge  ;04.12.2018;FEY;;LION;49;14500;7200;192;3;51;53;8400;3000;3683;3683;1;13000;25.24;26.34;28,2;BCS1388054;3;7
009853;01.11.2021;10:18:56;Stop           ;04.12.2018;FEY;;LION;49;14500;7200;128;3;51;53;8400;3000;3762;3716;1;12636;25.34;27.84;28,2;BCS1388054;3;7
009853;01.11.2021;10:27:50;Normalcharge  ;04.12.2018;FEY;;LION;49;14500;7200;192;3;51;53;8400;3000;3684;3684;1;13000;25.44;26.54;27,8;BCS1388054;3;7
009853;01.11.2021;10:29:05;Stop           ;04.12.2018;FEY;;LION;49;14500;7200;128;3;52;53;8400;3000;3770;3725;1;12579;25.54;29.44;28,5;BCS1388054;3;7
009853;01.11.2021;10:32:24;Ladung auf 60% ;04.12.2018;FEY;;LION;49;14500;7200;192;3;52;53;8400;3000;3686;3686;1;12998;25.64;27.54;29,7;BCS1388054;3;7
009853;01.11.2021;15:19:46;Stop           ;04.12.2018;FEY;;LION;49;14500;7200;192;3;58;60;8400;3000;3755;3753;1;12998;29.04;30.24;32,7;BCS1388054;3;7