File: reader/backup_20210405/Batterieverzeichnis_new/009558.txt
Serialnumber ; Date ; Time ; Action ; Date of Manufacture ; Manufacturer ; Battery Name ; Device-Chemistry ; Specification-Info ; Design-Capacity [mAh] ; Design-Voltage [mV] ; Battery Status ; Cycle Count ; SOC [%] ; Relativ SOC[%] ; Desired Voltage [mV]; Desired Current [mA]; Cell Voltage 1 [mV] ; Cell Voltage 2 [mV] ; Max_Error [%] ; Busvoltage[mV] ; Battery Temperature [°C] ; Charger Temperature [°C] ; Batterysystem ; Case ; PLace
009558;07.12.2020;04:14:17;Cycle         ;03.12.2018;FEY;;LION;49;14500;7200;16576;3;98;99;;;4145;4144;1;12988;25.74;27.44;30,3;BCS1388054;1;12
009558;08.12.2020;16:19:38;Stop          ;03.12.2018;FEY;;LION;49;14500;7200;16576;3;98;99;;;4143;4142;1;12989;27.14;28.54;31,9;BCS1388054;1;12
009558;12.01.2021;04:17:40;Charge to 90% ;03.12.2018;FEY;;LION;49;14500;7200;16576;3;97;98;;;4129;4128;1;12997;22.94;22.74;23,6;BCS1388054;6;6
009558;12.01.2021;05:00:55;Stop          ;03.12.2018;FEY;;LION;49;14500;7200;192;3;89;90;8400;3000;4051;4051;1;12993;27.44;27.04;31,2;BCS1388054;6;6
009558;12.01.2021;05:21:57;Cycle         ;03.12.2018;FEY;;LION;49;14500;7200;192;3;89;90;8400;3000;4055;4055;1;12993;27.04;26.04;30,4;BCS1388054;6;6
009558;13.01.2021;08:31:18;Stop          ;03.12.2018;FEY;;LION;49;14500;7200;224;4;96;100;8400;;4154;4153;1;12993;26.44;26.14;31,1;BCS1388054;6;6
009558;21.02.2021;13:43:49;Normalcharge  ;03.12.2018;FEY;;LION;49;14500;7200;192;5;52;54;8400;3000;3683;3683;1;13010;22.74;23.34;27,7;BCS1388054;3;10
009558;21.02.2021;20:44:52;Stop           ;03.12.2018;FEY;;LION;49;14500;7200;224;5;98;100;8400;;4153;4154;1;13004;26.54;27.64;31,2;BCS1388054;3;10