File: reader/backup_20210405/Batterieverzeichnis_new/009550.txt
Serialnumber ; Date ; Time ; Action ; Date of Manufacture ; Manufacturer ; Battery Name ; Device-Chemistry ; Specification-Info ; Design-Capacity [mAh] ; Design-Voltage [mV] ; Battery Status ; Cycle Count ; SOC [%] ; Relativ SOC[%] ; Desired Voltage [mV]; Desired Current [mA]; Cell Voltage 1 [mV] ; Cell Voltage 2 [mV] ; Max_Error [%] ; Busvoltage[mV] ; Battery Temperature [°C] ; Charger Temperature [°C] ; Batterysystem ; Case ; PLace
009550;07.02.2021;08:46:54;Normalcharge  ;04.12.2018;FEY;;LION;49;14500;7200;192;3;93;94;8400;3000;4067;4066;1;13008;23.44;24.74;29,2;BCS1388054;3;17
009550;07.02.2021;11:52:16;Stop           ;04.12.2018;FEY;;LION;49;14500;7200;224;3;99;100;8400;;4151;4149;1;13009;25.84;26.54;29,7;BCS1388054;3;17
009550;03.03.2021;08:17:46;Normalcharge  ;04.12.2018;FEY;;LION;49;14500;7200;2768;5;;;8400;3000;3052;3055;1;13031;23.14;23.24;23,6;BCS1388054;7;13
009550;03.03.2021;10:54:05;Stop          ;04.12.2018;FEY;;LION;49;14500;7200;128;5;30;31;8400;3000;3678;3630;1;12703;30.94;38.74;31,4;BCS1388054;7;13
009550;03.03.2021;10:55:49;Normalcharge  ;04.12.2018;FEY;;LION;49;14500;7200;192;5;30;32;8400;3000;3595;3595;1;13024;30.94;34.84;30,6;BCS1388054;7;13
009550;03.03.2021;17:03:24;Stop          ;04.12.2018;FEY;;LION;49;14500;7200;224;5;95;100;8400;;4163;4162;1;13025;26.64;28.24;31,4;BCS1388054;7;13
009550;04.04.2021;11:50:10;Normalcharge  ;04.12.2018;FEY;;LION;49;14500;7200;192;5;51;53;8400;3000;3676;3675;1;13001;24.94;25.84;27,8;BCS1388054;5;14
009550;04.04.2021;11:51:30;Stop          ;04.12.2018;FEY;;LION;49;14500;7200;128;5;51;53;8400;3000;3764;3717;1;12671;25.04;29.44;28,5;BCS1388054;5;14