File: reader/backup_20210405/Batterieverzeichnis_new/009530.txt
Serialnumber ; Date ; Time ; Action ; Date of Manufacture ; Manufacturer ; Battery Name ; Device-Chemistry ; Specification-Info ; Design-Capacity [mAh] ; Design-Voltage [mV] ; Battery Status ; Cycle Count ; SOC [%] ; Relativ SOC[%] ; Desired Voltage [mV]; Desired Current [mA]; Cell Voltage 1 [mV] ; Cell Voltage 2 [mV] ; Max_Error [%] ; Busvoltage[mV] ; Battery Temperature [°C] ; Charger Temperature [°C] ; Batterysystem ; Case ; PLace
009530;10.12.2019;15:29:01;Charge to 30% ;04.12.2018;FEY;;LION;49;14500;7200;224;47;92;100;8400;;4130;4130;1;13015;22.54;24.54;27,1;BCS1388054;5;16
009530;10.12.2019;20:48:54;Stop          ;04.12.2018;FEY;;LION;49;14500;7200;192;48;28;30;8400;3000;3562;3562;1;13014;33.64;33.74;33,1;BCS1388054;5;16
009530;11.12.2019;08:48:53;Fastcharge    ;04.12.2018;FEY;;LION;49;14500;7200;192;48;28;30;8400;3000;3569;3569;1;13013;26.54;28.34;31,9;BCS1388054;5;16
009530;11.12.2019;13:40:11;Stop          ;04.12.2018;FEY;;LION;49;14500;7200;224;48;94;100;8400;;4162;4162;1;13013;30.54;31.04;32,4;BCS1388054;5;16
009530;11.12.2019;15:46:40;Charge to 10% ;04.12.2018;FEY;;LION;49;14500;7200;224;48;95;100;8400;;4153;4154;1;13013;27.34;28.64;31,4;BCS1388054;5;16
009530;11.12.2019;22:49:07;Stop          ;04.12.2018;FEY;;LION;49;14500;7200;192;49;10;10;8400;3000;3357;3357;1;13013;34.44;34.54;33,5;BCS1388054;5;16
009530;12.12.2019;08:45:10;Normalcharge  ;04.12.2018;FEY;;LION;49;14500;7200;192;49;9;10;8400;3000;3366;3366;1;13014;26.64;28.44;31,7;BCS1388054;5;16
009530;12.12.2019;16:41:20;Stop          ;04.12.2018;FEY;;LION;49;14500;7200;224;49;95;100;8400;;4159;4158;1;13014;29.54;30.14;31,6;BCS1388054;5;16
009530;13.12.2019;10:48:05;Charge to 10% ;04.12.2018;FEY;;LION;49;14500;7200;224;49;95;100;8400;;4148;4148;1;13013;26.74;28.44;32,0;BCS1388054;5;16
009530;13.12.2019;15:40:55;Stop          ;04.12.2018;FEY;;LION;49;14500;7200;192;50;34;36;8400;3000;3499;3550;1;13530;33.54;38.24;34,6;BCS1388054;5;16
009530;13.12.2019;15:41:42;Cycle         ;04.12.2018;FEY;;LION;49;14500;7200;192;50;34;36;8400;3000;3582;3581;1;13012;33.54;36.34;34,5;BCS1388054;5;16
009530;14.12.2019;22:39:35;Stop          ;04.12.2018;FEY;;LION;49;14500;7200;224;51;92;99;8400;;4152;4152;1;13013;26.74;28.44;31,7;BCS1388054;5;16
009530;16.12.2019;07:43:20;Charge to 10% ;04.12.2018;FEY;;LION;49;14500;7200;224;51;93;100;8400;;4146;4146;1;13013;26.44;27.74;31,9;BCS1388054;5;16
009530;16.12.2019;14:34:29;Stop          ;04.12.2018;FEY;;LION;49;14500;7200;192;52;10;10;8400;3000;3367;3367;1;13013;32.94;33.04;32,5;BCS1388054;5;16
009530;16.12.2019;14:44:17;Charge to 90% ;04.12.2018;FEY;;LION;49;14500;7200;192;52;10;10;8400;3000;3369;3369;1;13013;32.14;31.24;31,9;BCS1388054;5;16
009530;16.12.2019;20:48:55;Stop          ;04.12.2018;FEY;;LION;49;14500;7200;192;52;84;90;8400;3000;4053;4054;1;13014;32.34;32.54;31,9;BCS1388054;5;16
009530;17.12.2019;08:37:54;Fastcharge    ;04.12.2018;FEY;;LION;49;14500;7200;192;52;84;90;8400;3000;4045;4045;1;13013;26.54;28.34;31,6;BCS1388054;5;16
009530;17.12.2019;10:33:46;Stop          ;04.12.2018;FEY;;LION;49;14500;7200;224;52;94;100;8400;;4160;4161;1;13014;28.34;29.54;31,1;BCS1388054;5;16
009530;17.12.2019;10:33:46;Stop          ;04.12.2018;FEY;;LION;49;14500;7200;224;52;94;100;8400;;4160;4161;1;13014;28.34;29.54;31,1;BCS1388054;5;16
009530;17.12.2019;13:38:36;Charge to 10% ;04.12.2018;FEY;;LION;49;14500;7200;224;52;94;100;8400;;4150;4150;1;13013;26.84;28.24;30,8;BCS1388054;5;16
009530;17.12.2019;20:33:18;Stop          ;04.12.2018;FEY;;LION;49;14500;7200;192;53;10;10;8400;3000;3364;3364;1;13013;34.54;34.64;34,5;BCS1388054;5;16
009530;18.12.2019;08:31:30;Fastcharge    ;04.12.2018;FEY;;LION;49;14500;7200;192;53;10;10;8400;3000;3373;3373;1;13012;26.64;28.34;31,6;BCS1388054;5;16
009530;18.12.2019;14:29:28;Stop          ;04.12.2018;FEY;;LION;49;14500;7200;224;53;94;100;8400;;4161;4161;1;13013;30.64;30.64;31,7;BCS1388054;5;16
009530;19.12.2019;08:24:02;Charge to 60% ;04.12.2018;FEY;;LION;49;14500;7200;224;53;95;100;8400;;4149;4149;1;13013;26.64;28.34;31,5;BCS1388054;5;16
009530;19.12.2019;11:31:09;Stop          ;04.12.2018;FEY;;LION;49;14500;7200;192;54;57;60;8400;3000;3766;3766;1;13012;34.24;34.74;34,4;BCS1388054;5;16
009530;19.12.2019;12:16:49;Cycle         ;04.12.2018;FEY;;LION;49;14500;7200;192;54;57;60;8400;3000;3774;3774;1;13013;31.04;30.74;32,7;BCS1388054;5;16
009530;20.12.2019;17:27:50;Stop          ;04.12.2018;FEY;;LION;49;14500;7200;224;55;93;100;8400;;4152;4152;1;13015;27.04;28.24;31,0;BCS1388054;5;16
009530;06.01.2020;06:34:55;Charge to 60% ;04.12.2018;FEY;;LION;49;14500;7200;224;55;92;99;8400;;4122;4122;1;13014;26.84;28.54;31,9;BCS1388054;5;16
009530;06.01.2020;09:30:26;Stop          ;04.12.2018;FEY;;LION;49;14500;7200;192;56;56;60;8400;3000;3768;3768;1;13014;33.44;34.34;33,9;BCS1388054;5;16
009530;06.01.2020;09:50:42;Fastcharge    ;04.12.2018;FEY;;LION;49;14500;7200;192;56;56;60;8400;3000;3776;3776;1;13014;32.04;31.44;32,7;BCS1388054;5;16
009530;06.01.2020;13:09:56;Stop          ;04.12.2018;FEY;;LION;49;14500;7200;224;56;93;100;8400;;4158;4159;1;13015;30.04;30.14;31,4;BCS1388054;5;16