File: reader/backup_20210405/Batterieverzeichnis_new/009596.txt
Serialnumber ; Date ; Time ; Action ; Date of Manufacture ; Manufacturer ; Battery Name ; Device-Chemistry ; Specification-Info ; Design-Capacity [mAh] ; Design-Voltage [mV] ; Battery Status ; Cycle Count ; SOC [%] ; Relativ SOC[%] ; Desired Voltage [mV]; Desired Current [mA]; Cell Voltage 1 [mV] ; Cell Voltage 2 [mV] ; Max_Error [%] ; Busvoltage[mV] ; Battery Temperature [°C] ; Charger Temperature [°C] ; Batterysystem ; Case ; PLace
009596;07.12.2020;04:14:32;Cycle         ;04.12.2018;FEY;;LION;49;14500;7200;192;1;92;98;8400;;4129;4129;1;12992;25.74;27.54;30,3;BCS1388054;5;13
009596;08.12.2020;16:20:01;Stop          ;04.12.2018;FEY;;LION;49;14500;7200;192;1;93;98;8400;;4128;4128;1;12991;27.84;29.24;31,7;BCS1388054;5;13
009596;12.01.2021;04:17:36;Charge to 90% ;04.12.2018;FEY;;LION;49;14500;7200;192;1;91;97;8400;;4116;4116;1;13009;23.04;24.14;23,6;BCS1388054;5;3
009596;12.01.2021;05:15:37;Stop          ;04.12.2018;FEY;;LION;49;14500;7200;192;1;85;90;8400;3000;4060;4060;1;13002;27.14;29.44;31,6;BCS1388054;5;3
009596;12.01.2021;05:21:53;Cycle         ;04.12.2018;FEY;;LION;49;14500;7200;192;1;85;90;8400;3000;4060;4060;1;13003;27.14;29.04;30,6;BCS1388054;5;3
009596;13.01.2021;08:31:10;Stop          ;04.12.2018;FEY;;LION;49;14500;7200;224;2;96;100;8400;;4157;4157;1;13001;27.04;29.04;31,1;BCS1388054;5;3
009596;22.02.2021;17:31:46;Normalcharge  ;04.12.2018;FEY;;LION;49;14500;7200;192;3;62;65;8400;3000;3807;3807;1;12986;25.74;26.64;31,6;BCS1388054;1;12
009596;22.02.2021;23:06:28;Stop          ;04.12.2018;FEY;;LION;49;14500;7200;224;3;96;100;8400;;4154;4156;1;12988;26.24;27.04;30,6;BCS1388054;1;12