File: reader/backup_20210405/Batterieverzeichnis_new/009560.txt
Serialnumber ; Date ; Time ; Action ; Date of Manufacture ; Manufacturer ; Battery Name ; Device-Chemistry ; Specification-Info ; Design-Capacity [mAh] ; Design-Voltage [mV] ; Battery Status ; Cycle Count ; SOC [%] ; Relativ SOC[%] ; Desired Voltage [mV]; Desired Current [mA]; Cell Voltage 1 [mV] ; Cell Voltage 2 [mV] ; Max_Error [%] ; Busvoltage[mV] ; Battery Temperature [°C] ; Charger Temperature [°C] ; Batterysystem ; Case ; PLace
009560;10.12.2019;15:28:54;Charge to 30% ;03.12.2018;FEY;;LION;49;14500;7200;224;53;93;100;8400;;4128;4126;1;13030;22.94;23.54;27,1;BCS1388054;4;18
009560;10.12.2019;20:47:57;Stop          ;03.12.2018;FEY;;LION;49;14500;7200;192;53;29;30;8400;3000;3558;3558;1;13027;33.14;33.74;33,4;BCS1388054;4;18
009560;11.12.2019;08:48:41;Fastcharge    ;03.12.2018;FEY;;LION;49;14500;7200;192;53;29;30;8400;3000;3568;3568;1;13029;26.54;27.04;31,9;BCS1388054;4;18
009560;11.12.2019;13:42:44;Stop          ;03.12.2018;FEY;;LION;49;14500;7200;224;53;95;100;8400;;4161;4160;1;13029;29.54;29.54;31,9;BCS1388054;4;18
009560;11.12.2019;15:46:31;Charge to 10% ;03.12.2018;FEY;;LION;49;14500;7200;224;53;96;99;8400;;4152;4152;1;13028;27.24;27.34;31,4;BCS1388054;4;18
009560;11.12.2019;22:50:44;Stop          ;03.12.2018;FEY;;LION;49;14500;7200;192;55;10;10;8400;3000;3351;3353;1;13027;33.64;33.54;33,2;BCS1388054;4;18
009560;12.12.2019;08:45:03;Normalcharge  ;03.12.2018;FEY;;LION;49;14500;7200;192;55;9;10;8400;3000;3362;3363;1;13029;26.74;27.14;31,9;BCS1388054;4;18
009560;12.12.2019;16:41:48;Stop          ;03.12.2018;FEY;;LION;49;14500;7200;224;55;96;100;8400;;4162;4162;1;13029;28.94;29.24;31,5;BCS1388054;4;18
009560;13.12.2019;10:48:01;Charge to 10% ;03.12.2018;FEY;;LION;49;14500;7200;224;55;96;100;8400;;4148;4147;1;13029;26.74;27.24;32,0;BCS1388054;4;18
009560;13.12.2019;15:42:25;Stop          ;03.12.2018;FEY;;LION;49;14500;7200;192;55;35;37;8400;3000;3503;3554;1;13541;32.54;39.64;34,6;BCS1388054;4;18
009560;13.12.2019;15:42:27;Cycle         ;03.12.2018;FEY;;LION;49;14500;7200;192;55;35;37;8400;3000;3503;3554;1;13027;32.54;39.64;34,6;BCS1388054;4;18
009560;14.12.2019;22:44:28;Stop          ;03.12.2018;FEY;;LION;49;14500;7200;224;57;93;99;8400;;4151;4151;1;13029;26.84;27.14;32,0;BCS1388054;4;18
009560;16.12.2019;07:43:14;Charge to 10% ;03.12.2018;FEY;;LION;49;14500;7200;224;57;94;100;8400;;4145;4145;1;13029;26.54;26.74;31,9;BCS1388054;4;18
009560;16.12.2019;14:36:45;Stop          ;03.12.2018;FEY;;LION;49;14500;7200;192;58;10;10;8400;3000;3363;3365;1;13028;32.24;32.34;32,4;BCS1388054;4;18
009560;16.12.2019;14:44:13;Charge to 90% ;03.12.2018;FEY;;LION;49;14500;7200;192;58;10;10;8400;3000;3366;3368;1;13028;31.44;30.34;31,7;BCS1388054;4;18
009560;16.12.2019;20:50:28;Stop          ;03.12.2018;FEY;;LION;49;14500;7200;192;58;85;90;8400;3000;4062;4063;1;13030;31.24;31.74;31,6;BCS1388054;4;18
009560;17.12.2019;08:37:50;Fastcharge    ;03.12.2018;FEY;;LION;49;14500;7200;192;58;85;90;8400;3000;4049;4051;1;13028;26.54;26.94;31,6;BCS1388054;4;18
009560;17.12.2019;10:31:07;Stop          ;03.12.2018;FEY;;LION;49;14500;7200;224;58;95;100;8400;;4162;4163;1;13029;28.14;28.94;31,4;BCS1388054;4;18
009560;17.12.2019;13:38:32;Charge to 10% ;03.12.2018;FEY;;LION;49;14500;7200;224;58;95;100;8400;;4149;4150;1;13029;26.84;27.04;30,8;BCS1388054;4;18
009560;17.12.2019;20:34:29;Stop          ;03.12.2018;FEY;;LION;49;14500;7200;192;59;10;10;8400;3000;3365;3367;1;13027;33.74;33.44;34,1;BCS1388054;4;18
009560;18.12.2019;08:31:26;Fastcharge    ;03.12.2018;FEY;;LION;49;14500;7200;192;59;10;10;8400;3000;3374;3376;1;13029;26.74;27.04;31,6;BCS1388054;4;18
009560;18.12.2019;14:29:12;Stop          ;03.12.2018;FEY;;LION;49;14500;7200;224;59;95;100;8400;;4162;4163;1;13029;29.64;29.84;31,9;BCS1388054;4;18
009560;19.12.2019;08:23:58;Charge to 60% ;03.12.2018;FEY;;LION;49;14500;7200;224;59;96;100;8400;;4148;4149;1;13028;26.64;26.94;31,6;BCS1388054;4;18
009560;19.12.2019;11:30:18;Stop          ;03.12.2018;FEY;;LION;49;14500;7200;192;59;58;60;8400;3000;3765;3769;1;13027;33.84;35.64;34,6;BCS1388054;4;18
009560;19.12.2019;12:16:45;Cycle         ;03.12.2018;FEY;;LION;49;14500;7200;192;59;58;60;8400;3000;3778;3782;1;13028;29.94;29.64;32,7;BCS1388054;4;18
009560;20.12.2019;17:30:48;Stop          ;03.12.2018;FEY;;LION;49;14500;7200;224;61;94;99;8400;;4151;4151;1;13030;26.84;26.84;30,6;BCS1388054;4;18
009560;06.01.2020;06:34:50;Charge to 60% ;03.12.2018;FEY;;LION;49;14500;7200;192;61;92;98;8400;;4122;4121;1;13030;26.84;27.14;31,9;BCS1388054;4;18
009560;06.01.2020;09:30:33;Stop          ;03.12.2018;FEY;;LION;49;14500;7200;192;61;57;60;8400;3000;3772;3775;1;13029;33.04;34.04;33,7;BCS1388054;4;18
009560;06.01.2020;09:50:38;Fastcharge    ;03.12.2018;FEY;;LION;49;14500;7200;192;61;57;60;8400;3000;3781;3784;1;13029;31.14;30.34;32,7;BCS1388054;4;18
009560;06.01.2020;13:09:19;Stop          ;03.12.2018;FEY;;LION;49;14500;7200;224;61;95;100;8400;;4160;4160;1;13030;29.14;29.24;31,4;BCS1388054;4;18