File: reader/backup_20210405/Batterieverzeichnis_new/009687.txt
Serialnumber ; Date ; Time ; Action ; Date of Manufacture ; Manufacturer ; Battery Name ; Device-Chemistry ; Specification-Info ; Design-Capacity [mAh] ; Design-Voltage [mV] ; Battery Status ; Cycle Count ; SOC [%] ; Relativ SOC[%] ; Desired Voltage [mV]; Desired Current [mA]; Cell Voltage 1 [mV] ; Cell Voltage 2 [mV] ; Max_Error [%] ; Busvoltage[mV] ; Battery Temperature [°C] ; Charger Temperature [°C] ; Batterysystem ; Case ; PLace
009687;07.12.2020;04:14:40;Cycle         ;04.12.2018;FEY;;LION;49;14500;7200;192;3;95;96;8400;;4107;4107;1;13022;25.74;26.34;30,3;BCS1388054;7;11
009687;08.12.2020;16:20:20;Stop          ;04.12.2018;FEY;;LION;49;14500;7200;192;3;95;96;8400;;4106;4106;1;13019;27.54;27.54;31,9;BCS1388054;7;11
009687;12.01.2021;04:16:00;Charge to 90% ;04.12.2018;FEY;;LION;49;14500;7200;192;3;87;89;8400;3000;4030;4031;1;12999;23.14;22.04;23,0;BCS1388054;1;11
009687;12.01.2021;04:16:03;Stop          ;04.12.2018;FEY;;LION;49;14500;7200;192;3;87;89;8400;3000;4030;4031;1;13000;23.14;22.64;23,0;BCS1388054;1;11
009687;12.01.2021;04:17:15;Charge to 90% ;04.12.2018;FEY;;LION;49;14500;7200;192;3;87;89;8400;3000;4030;4031;1;12996;23.14;23.04;23,5;BCS1388054;1;11
009687;12.01.2021;04:55:18;Stop          ;04.12.2018;FEY;;LION;49;14500;7200;192;3;88;90;8400;3000;4041;4043;1;12990;26.34;28.24;31,7;BCS1388054;1;11
009687;12.01.2021;05:21:33;Cycle         ;04.12.2018;FEY;;LION;49;14500;7200;192;3;88;90;8400;3000;4041;4042;1;12991;26.74;26.44;30,6;BCS1388054;1;11
009687;13.01.2021;08:18:34;Stop          ;04.12.2018;FEY;;LION;49;14500;7200;224;4;96;100;8400;;4155;4158;1;12993;26.54;26.34;30,7;BCS1388054;1;11
009687;03.03.2021;08:17:21;Normalcharge  ;04.12.2018;FEY;;LION;49;14500;7200;192;4;91;94;8400;3000;4085;4087;1;13019;23.24;23.14;23,5;BCS1388054;3;3
009687;04.03.2021;07:53:39;Stop           ;04.12.2018;FEY;;LION;49;14500;7200;224;4;97;100;8400;;4147;4149;1;13015;26.54;28.14;31,5;BCS1388054;3;3
009687;04.04.2021;11:50:22;Normalcharge  ;04.12.2018;FEY;;LION;49;14500;7200;192;5;16;16;8400;3000;3409;3420;1;13009;25.24;26.04;27,9;BCS1388054;4;12
009687;04.04.2021;11:51:36;Stop          ;04.12.2018;FEY;;LION;49;14500;7200;128;5;16;16;8400;3000;3508;3470;1;12715;25.24;27.84;28,6;BCS1388054;4;12