File: reader/backup_20210405/Batterieverzeichnis_new/009618.txt
Serialnumber ; Date ; Time ; Action ; Date of Manufacture ; Manufacturer ; Battery Name ; Device-Chemistry ; Specification-Info ; Design-Capacity [mAh] ; Design-Voltage [mV] ; Battery Status ; Cycle Count ; SOC [%] ; Relativ SOC[%] ; Desired Voltage [mV]; Desired Current [mA]; Cell Voltage 1 [mV] ; Cell Voltage 2 [mV] ; Max_Error [%] ; Busvoltage[mV] ; Battery Temperature [°C] ; Charger Temperature [°C] ; Batterysystem ; Case ; PLace
009618;10.12.2019;15:28:33;Charge to 30% ;04.12.2018;FEY;;LION;49;14500;7200;224;41;93;99;8400;;4112;4112;1;12995;23.64;26.14;27,1;BCS1388054;1;2
009618;10.12.2019;20:42:16;Stop          ;04.12.2018;FEY;;LION;49;14500;7200;192;42;29;30;8400;3000;3556;3557;1;12993;32.64;34.34;34,1;BCS1388054;1;2
009618;11.12.2019;08:48:18;Fastcharge    ;04.12.2018;FEY;;LION;49;14500;7200;192;42;29;30;8400;3000;3567;3568;1;12994;26.34;28.74;31,9;BCS1388054;1;2
009618;11.12.2019;13:40:21;Stop          ;04.12.2018;FEY;;LION;49;14500;7200;224;42;95;100;8400;;4163;4164;1;12994;29.64;30.84;32,4;BCS1388054;1;2
009618;11.12.2019;15:45:57;Charge to 30% ;04.12.2018;FEY;;LION;49;14500;7200;224;42;96;100;8400;;4154;4155;1;12993;27.14;28.94;31,5;BCS1388054;1;2
009618;11.12.2019;15:46:00;Stop          ;04.12.2018;FEY;;LION;49;14500;7200;224;42;96;100;8400;;4154;4155;1;12994;27.14;28.94;31,5;BCS1388054;1;2
009618;11.12.2019;15:46:13;Charge to 10% ;04.12.2018;FEY;;LION;49;14500;7200;224;42;96;100;8400;;4154;4155;1;12994;27.14;28.84;31,5;BCS1388054;1;2
009618;11.12.2019;22:50:20;Stop          ;04.12.2018;FEY;;LION;49;14500;7200;192;44;10;10;8400;3000;3351;3353;1;12994;33.24;33.34;33,4;BCS1388054;1;2
009618;12.12.2019;08:44:40;Normalcharge  ;04.12.2018;FEY;;LION;49;14500;7200;192;44;9;10;8400;3000;3362;3364;1;12994;26.54;28.94;31,9;BCS1388054;1;2
009618;12.12.2019;16:39:22;Stop          ;04.12.2018;FEY;;LION;49;14500;7200;224;44;96;100;8400;;4161;4161;1;12994;28.94;30.24;31,7;BCS1388054;1;2
009618;13.12.2019;10:47:47;Charge to 10% ;04.12.2018;FEY;;LION;49;14500;7200;224;44;96;100;8400;;4148;4149;1;12995;26.64;28.94;32,0;BCS1388054;1;2
009618;13.12.2019;15:41:58;Stop          ;04.12.2018;FEY;;LION;49;14500;7200;192;44;35;36;8400;3000;3500;3553;1;13612;32.44;38.54;34,6;BCS1388054;1;2
009618;13.12.2019;15:42:01;Cycle         ;04.12.2018;FEY;;LION;49;14500;7200;192;44;35;36;8400;3000;3500;3553;1;12993;32.44;38.54;34,6;BCS1388054;1;2
009618;14.12.2019;22:41:25;Stop          ;04.12.2018;FEY;;LION;49;14500;7200;224;46;94;99;8400;;4153;4155;1;12995;26.64;28.74;31,9;BCS1388054;1;2
009618;16.12.2019;07:43:03;Charge to 10% ;04.12.2018;FEY;;LION;49;14500;7200;224;46;94;100;8400;;4146;4149;1;12995;26.34;28.44;31,9;BCS1388054;1;2
009618;16.12.2019;14:36:13;Stop          ;04.12.2018;FEY;;LION;49;14500;7200;192;47;10;10;8400;3000;3363;3366;1;12993;32.24;32.54;32,4;BCS1388054;1;2
009618;16.12.2019;14:44:00;Charge to 90% ;04.12.2018;FEY;;LION;49;14500;7200;192;47;10;10;8400;3000;3365;3368;1;12994;31.84;31.34;31,7;BCS1388054;1;2
009618;16.12.2019;20:50:03;Stop          ;04.12.2018;FEY;;LION;49;14500;7200;192;47;85;90;8400;3000;4061;4063;1;12995;31.44;31.84;31,7;BCS1388054;1;2
009618;17.12.2019;08:37:36;Fastcharge    ;04.12.2018;FEY;;LION;49;14500;7200;192;47;85;90;8400;3000;4049;4050;1;12995;26.44;28.64;31,6;BCS1388054;1;2
009618;17.12.2019;10:31:11;Stop          ;04.12.2018;FEY;;LION;49;14500;7200;224;47;95;100;8400;;4160;4160;1;12995;27.74;29.54;31,4;BCS1388054;1;2
009618;17.12.2019;13:38:19;Charge to 10% ;04.12.2018;FEY;;LION;49;14500;7200;224;47;95;100;8400;;4150;4150;1;12994;26.74;28.54;30,8;BCS1388054;1;2
009618;17.12.2019;20:33:50;Stop          ;04.12.2018;FEY;;LION;49;14500;7200;192;48;10;10;8400;3000;3364;3365;1;12994;33.24;33.54;34,2;BCS1388054;1;2
009618;18.12.2019;08:31:14;Fastcharge    ;04.12.2018;FEY;;LION;49;14500;7200;192;48;10;11;8400;3000;3374;3375;1;12994;26.54;28.64;31,6;BCS1388054;1;2
009618;18.12.2019;14:28:33;Stop          ;04.12.2018;FEY;;LION;49;14500;7200;224;48;95;100;8400;;4162;4160;1;12994;29.74;30.44;31,9;BCS1388054;1;2
009618;19.12.2019;08:23:45;Charge to 60% ;04.12.2018;FEY;;LION;49;14500;7200;224;48;96;100;8400;;4150;4148;1;12995;26.44;28.54;31,5;BCS1388054;1;2
009618;19.12.2019;11:29:32;Stop          ;04.12.2018;FEY;;LION;49;14500;7200;192;48;58;60;8400;3000;3760;3760;1;12995;33.14;35.54;34,9;BCS1388054;1;2
009618;19.12.2019;12:16:33;Cycle         ;04.12.2018;FEY;;LION;49;14500;7200;192;48;58;60;8400;3000;3775;3775;1;12993;30.14;30.44;32,7;BCS1388054;1;2
009618;20.12.2019;17:26:19;Stop          ;04.12.2018;FEY;;LION;49;14500;7200;224;50;94;100;8400;;4152;4153;1;12995;26.64;28.54;31,2;BCS1388054;1;2
009618;06.01.2020;06:34:38;Charge to 60% ;04.12.2018;FEY;;LION;49;14500;7200;192;50;92;98;8400;;4122;4123;1;12996;26.44;28.54;31,9;BCS1388054;1;2
009618;06.01.2020;09:30:29;Stop          ;04.12.2018;FEY;;LION;49;14500;7200;192;50;57;60;8400;3000;3771;3773;1;12994;32.24;33.64;33,9;BCS1388054;1;2
009618;06.01.2020;09:50:27;Fastcharge    ;04.12.2018;FEY;;LION;49;14500;7200;192;50;57;60;8400;3000;3779;3782;1;12996;31.04;30.94;32,6;BCS1388054;1;2
009618;06.01.2020;13:07:36;Stop          ;04.12.2018;FEY;;LION;49;14500;7200;224;50;95;100;8400;;4160;4161;1;12995;29.14;30.24;31,7;BCS1388054;1;2