File: reader/backup_20210405/Batterieverzeichnis_new/009649.txt
Serialnumber ; Date ; Time ; Action ; Date of Manufacture ; Manufacturer ; Battery Name ; Device-Chemistry ; Specification-Info ; Design-Capacity [mAh] ; Design-Voltage [mV] ; Battery Status ; Cycle Count ; SOC [%] ; Relativ SOC[%] ; Desired Voltage [mV]; Desired Current [mA]; Cell Voltage 1 [mV] ; Cell Voltage 2 [mV] ; Max_Error [%] ; Busvoltage[mV] ; Battery Temperature [°C] ; Charger Temperature [°C] ; Batterysystem ; Case ; PLace
009649;07.12.2020;04:14:40;Cycle         ;04.12.2018;FEY;;LION;49;14500;7200;192;2;97;97;8400;;4118;4118;1;13026;25.74;28.24;30,3;BCS1388054;7;1
009649;08.12.2020;16:20:20;Stop          ;04.12.2018;FEY;;LION;49;14500;7200;192;2;97;97;8400;;4116;4117;1;13026;27.74;29.64;31,9;BCS1388054;7;1
009649;12.01.2021;04:17:33;Charge to 90% ;04.12.2018;FEY;;LION;49;14500;7200;192;2;96;96;8400;;4106;4106;1;13007;23.24;24.14;23,6;BCS1388054;4;7
009649;12.01.2021;04:57:16;Stop          ;04.12.2018;FEY;;LION;49;14500;7200;192;2;90;90;8400;3000;4050;4051;1;13002;27.14;30.44;31,6;BCS1388054;4;7
009649;12.01.2021;05:21:49;Cycle         ;04.12.2018;FEY;;LION;49;14500;7200;192;2;90;90;8400;3000;4053;4054;1;13003;27.34;28.94;30,4;BCS1388054;4;7
009649;13.01.2021;08:19:19;Stop          ;04.12.2018;FEY;;LION;49;14500;7200;224;4;98;100;8400;;4156;4156;1;13005;27.54;28.84;30,7;BCS1388054;4;7
009649;03.03.2021;08:17:35;Normalcharge  ;04.12.2018;FEY;;LION;49;14500;7200;192;4;74;76;8400;3000;3898;3898;1;13010;23.34;23.54;23,6;BCS1388054;5;11
009649;03.03.2021;11:26:36;Stop          ;04.12.2018;FEY;;LION;49;14500;7200;224;4;98;100;8400;;4159;4160;1;13003;28.64;28.84;31,5;BCS1388054;5;11
009649;04.04.2021;11:50:33;Normalcharge  ;04.12.2018;FEY;;LION;49;14500;7200;192;5;54;55;8400;3000;3701;3702;1;13005;25.14;26.64;27,9;BCS1388054;2;8
009649;04.04.2021;11:51:48;Stop          ;04.12.2018;FEY;;LION;49;14500;7200;128;5;54;55;8400;3000;3789;3743;1;12603;25.24;29.44;28,6;BCS1388054;2;8