File: reader/backup_20210405/Batterieverzeichnis_new/009665.txt
Serialnumber ; Date ; Time ; Action ; Date of Manufacture ; Manufacturer ; Battery Name ; Device-Chemistry ; Specification-Info ; Design-Capacity [mAh] ; Design-Voltage [mV] ; Battery Status ; Cycle Count ; SOC [%] ; Relativ SOC[%] ; Desired Voltage [mV]; Desired Current [mA]; Cell Voltage 1 [mV] ; Cell Voltage 2 [mV] ; Max_Error [%] ; Busvoltage[mV] ; Battery Temperature [°C] ; Charger Temperature [°C] ; Batterysystem ; Case ; PLace
009665;10.12.2019;15:28:54;Charge to 30% ;04.12.2018;FEY;;LION;49;14500;7200;224;51;91;100;8400;;4129;4130;1;13019;22.94;24.34;27,1;BCS1388054;4;8
009665;10.12.2019;20:47:57;Stop          ;04.12.2018;FEY;;LION;49;14500;7200;192;52;28;30;8400;3000;3563;3564;1;13017;34.64;33.34;33,4;BCS1388054;4;8
009665;11.12.2019;08:48:41;Fastcharge    ;04.12.2018;FEY;;LION;49;14500;7200;192;52;28;30;8400;3000;3570;3570;1;13018;27.04;28.04;31,9;BCS1388054;4;8
009665;11.12.2019;13:42:44;Stop          ;04.12.2018;FEY;;LION;49;14500;7200;224;52;93;100;8400;;4160;4159;1;13018;31.34;30.04;31,9;BCS1388054;4;8
009665;11.12.2019;15:46:31;Charge to 10% ;04.12.2018;FEY;;LION;49;14500;7200;224;52;94;100;8400;;4154;4153;1;13018;27.94;28.24;31,4;BCS1388054;4;8
009665;11.12.2019;22:50:44;Stop          ;04.12.2018;FEY;;LION;49;14500;7200;192;53;10;10;8400;3000;3364;3363;1;13016;35.24;33.34;33,2;BCS1388054;4;8
009665;12.12.2019;08:45:03;Normalcharge  ;04.12.2018;FEY;;LION;49;14500;7200;192;53;9;10;8400;3000;3371;3371;1;13018;27.24;28.04;31,9;BCS1388054;4;8
009665;12.12.2019;16:41:48;Stop          ;04.12.2018;FEY;;LION;49;14500;7200;224;53;94;100;8400;;4158;4155;1;13016;30.24;29.54;31,5;BCS1388054;4;8
009665;13.12.2019;10:48:01;Charge to 10% ;04.12.2018;FEY;;LION;49;14500;7200;224;53;94;100;8400;;4148;4145;1;13019;27.24;28.24;32,0;BCS1388054;4;8
009665;13.12.2019;15:42:25;Stop          ;04.12.2018;FEY;;LION;49;14500;7200;192;54;33;36;8400;3000;3497;3548;1;13511;34.14;38.34;34,6;BCS1388054;4;8
009665;13.12.2019;15:42:27;Cycle         ;04.12.2018;FEY;;LION;49;14500;7200;192;54;33;36;8400;3000;3497;3548;1;13511;34.14;38.34;34,6;BCS1388054;4;8
009665;14.12.2019;22:44:28;Stop          ;04.12.2018;FEY;;LION;49;14500;7200;224;55;92;99;8400;;4152;4152;1;13018;27.44;28.14;32,0;BCS1388054;4;8
009665;16.12.2019;07:43:14;Charge to 10% ;04.12.2018;FEY;;LION;49;14500;7200;224;55;92;100;8400;;4146;4146;1;13018;27.04;27.64;31,9;BCS1388054;4;8
009665;16.12.2019;14:36:44;Stop          ;04.12.2018;FEY;;LION;49;14500;7200;192;57;10;10;8400;3000;3369;3369;1;13018;33.64;32.04;32,4;BCS1388054;4;8
009665;16.12.2019;14:44:13;Charge to 90% ;04.12.2018;FEY;;LION;49;14500;7200;192;57;10;10;8400;3000;3370;3370;1;13018;33.14;30.84;31,7;BCS1388054;4;8
009665;16.12.2019;20:50:27;Stop          ;04.12.2018;FEY;;LION;49;14500;7200;192;57;83;90;8400;3000;4055;4056;1;13018;32.84;31.34;31,6;BCS1388054;4;8
009665;17.12.2019;08:37:49;Fastcharge    ;04.12.2018;FEY;;LION;49;14500;7200;192;57;83;90;8400;3000;4047;4048;1;13018;27.14;27.94;31,6;BCS1388054;4;8
009665;17.12.2019;10:31:06;Stop          ;04.12.2018;FEY;;LION;49;14500;7200;224;57;93;100;8400;;4158;4158;1;13018;28.94;29.14;31,4;BCS1388054;4;8
009665;17.12.2019;13:38:32;Charge to 10% ;04.12.2018;FEY;;LION;49;14500;7200;224;57;93;100;8400;;4149;4149;1;13018;27.44;27.84;30,8;BCS1388054;4;8
009665;17.12.2019;20:34:29;Stop          ;04.12.2018;FEY;;LION;49;14500;7200;192;58;10;10;8400;3000;3369;3369;1;13016;35.34;33.64;34,1;BCS1388054;4;8
009665;18.12.2019;08:31:26;Fastcharge    ;04.12.2018;FEY;;LION;49;14500;7200;192;58;10;10;8400;3000;3377;3377;1;13019;27.24;27.94;31,6;BCS1388054;4;8
009665;18.12.2019;14:29:12;Stop          ;04.12.2018;FEY;;LION;49;14500;7200;224;58;93;100;8400;;4159;4159;1;13018;31.34;30.24;31,9;BCS1388054;4;8
009665;19.12.2019;08:23:58;Charge to 60% ;04.12.2018;FEY;;LION;49;14500;7200;224;58;94;100;8400;;4149;4149;1;13018;27.14;28.04;31,6;BCS1388054;4;8
009665;19.12.2019;11:30:18;Stop          ;04.12.2018;FEY;;LION;49;14500;7200;192;58;57;60;8400;3000;3770;3771;1;13016;35.14;34.54;34,6;BCS1388054;4;8
009665;19.12.2019;12:16:45;Cycle         ;04.12.2018;FEY;;LION;49;14500;7200;192;58;57;60;8400;3000;3779;3779;1;13017;31.84;30.54;32,7;BCS1388054;4;8
009665;20.12.2019;17:30:48;Stop          ;04.12.2018;FEY;;LION;49;14500;7200;224;59;92;100;8400;;4152;4152;1;13018;27.64;27.74;30,6;BCS1388054;4;8
009665;06.01.2020;06:34:50;Charge to 60% ;04.12.2018;FEY;;LION;49;14500;7200;192;59;91;98;8400;;4123;4123;1;13019;27.44;28.14;31,9;BCS1388054;4;8
009665;06.01.2020;09:30:33;Stop          ;04.12.2018;FEY;;LION;49;14500;7200;192;60;56;60;8400;3000;3777;3777;1;13017;34.34;33.54;33,7;BCS1388054;4;8
009665;06.01.2020;09:50:38;Fastcharge    ;04.12.2018;FEY;;LION;49;14500;7200;192;60;56;60;8400;3000;3783;3784;1;13019;32.84;31.14;32,7;BCS1388054;4;8
009665;06.01.2020;13:09:19;Stop          ;04.12.2018;FEY;;LION;49;14500;7200;224;60;93;100;8400;;4157;4157;1;13019;30.84;29.64;31,4;BCS1388054;4;8