File: reader/backup_20210405/Batterieverzeichnis_new/009777.txt
Serialnumber ; Date ; Time ; Action ; Date of Manufacture ; Manufacturer ; Battery Name ; Device-Chemistry ; Specification-Info ; Design-Capacity [mAh] ; Design-Voltage [mV] ; Battery Status ; Cycle Count ; SOC [%] ; Relativ SOC[%] ; Desired Voltage [mV]; Desired Current [mA]; Cell Voltage 1 [mV] ; Cell Voltage 2 [mV] ; Max_Error [%] ; Busvoltage[mV] ; Battery Temperature [°C] ; Charger Temperature [°C] ; Batterysystem ; Case ; PLace
009777;07.12.2020;04:14:40;Cycle         ;04.12.2018;FEY;;LION;49;14500;7200;192;2;96;97;8400;;4126;4125;1;13025;25.54;27.94;30,3;BCS1388054;7;2
009777;08.12.2020;16:20:20;Stop          ;04.12.2018;FEY;;LION;49;14500;7200;192;2;96;97;8400;;4125;4123;1;13025;27.54;29.34;31,9;BCS1388054;7;2
009777;07.02.2021;08:47:00;Normalcharge  ;04.12.2018;FEY;;LION;49;14500;7200;192;2;89;91;8400;3000;4050;4048;1;13004;23.44;25.24;29,2;BCS1388054;4;17
009777;07.02.2021;11:52:20;Stop          ;04.12.2018;FEY;;LION;49;14500;7200;224;2;99;100;8400;;4152;4150;1;13003;25.74;26.74;29,7;BCS1388054;4;17
009777;03.03.2021;08:17:29;Normalcharge  ;04.12.2018;FEY;;LION;49;14500;7200;192;3;87;90;8400;3000;4038;4036;1;13008;23.14;23.44;23,5;BCS1388054;4;6
009777;03.03.2021;10:32:46;Stop          ;04.12.2018;FEY;;LION;49;14500;7200;224;3;97;100;8400;;4155;4153;1;13002;27.94;28.44;32,0;BCS1388054;4;6
009777;04.04.2021;11:50:10;Normalcharge  ;04.12.2018;FEY;;LION;49;14500;7200;2768;4;;;8400;3000;3084;3094;1;13018;24.84;25.84;27,8;BCS1388054;5;8
009777;04.04.2021;11:51:30;Stop          ;04.12.2018;FEY;;LION;49;14500;7200;144;4;;;8400;3000;3146;3135;1;12694;24.94;27.74;28,5;BCS1388054;5;8