File: reader/backup_20210405/Batterieverzeichnis_new/009757.txt
Serialnumber ; Date ; Time ; Action ; Date of Manufacture ; Manufacturer ; Battery Name ; Device-Chemistry ; Specification-Info ; Design-Capacity [mAh] ; Design-Voltage [mV] ; Battery Status ; Cycle Count ; SOC [%] ; Relativ SOC[%] ; Desired Voltage [mV]; Desired Current [mA]; Cell Voltage 1 [mV] ; Cell Voltage 2 [mV] ; Max_Error [%] ; Busvoltage[mV] ; Battery Temperature [°C] ; Charger Temperature [°C] ; Batterysystem ; Case ; PLace
009757;07.12.2020;04:14:32;Cycle         ;04.12.2018;FEY;;LION;49;14500;7200;192;2;94;98;8400;;4132;4130;1;13014;25.94;27.34;30,3;BCS1388054;5;18
009757;08.12.2020;16:20:01;Stop          ;04.12.2018;FEY;;LION;49;14500;7200;192;2;94;98;8400;;4130;4128;1;13013;27.74;28.94;31,7;BCS1388054;5;18
009757;07.02.2021;08:46:59;Normalcharge  ;04.12.2018;FEY;;LION;49;14500;7200;192;2;92;93;8400;3000;4086;4085;1;13000;23.64;26.64;29,2;BCS1388054;4;3
009757;07.02.2021;11:52:20;Stop          ;04.12.2018;FEY;;LION;49;14500;7200;224;2;99;100;8400;;4149;4148;1;12998;26.04;27.84;29,7;BCS1388054;4;3
009757;03.03.2021;08:17:35;Normalcharge  ;04.12.2018;FEY;;LION;49;14500;7200;192;2;78;80;8400;3000;3935;3934;1;13015;23.24;23.44;23,6;BCS1388054;5;4
009757;03.03.2021;11:26:36;Stop          ;04.12.2018;FEY;;LION;49;14500;7200;224;2;97;100;8400;;4155;4154;1;13009;28.34;29.34;31,5;BCS1388054;5;4
009757;04.04.2021;11:50:39;Normalcharge  ;04.12.2018;FEY;;LION;49;14500;7200;224;2;96;99;8400;;4134;4133;1;12992;25.04;26.04;28,1;BCS1388054;1;5
009757;04.04.2021;11:51:54;Stop          ;04.12.2018;FEY;;LION;49;14500;7200;224;2;96;99;8400;;4133;4132;1;12558;25.14;26.44;28,8;BCS1388054;1;5