File: reader/backup_20210405/Batterieverzeichnis_new/009715.txt
Serialnumber ; Date ; Time ; Action ; Date of Manufacture ; Manufacturer ; Battery Name ; Device-Chemistry ; Specification-Info ; Design-Capacity [mAh] ; Design-Voltage [mV] ; Battery Status ; Cycle Count ; SOC [%] ; Relativ SOC[%] ; Desired Voltage [mV]; Desired Current [mA]; Cell Voltage 1 [mV] ; Cell Voltage 2 [mV] ; Max_Error [%] ; Busvoltage[mV] ; Battery Temperature [°C] ; Charger Temperature [°C] ; Batterysystem ; Case ; PLace
009715;30.11.2020;09:42:55;Stop          ;04.12.2018;FEY;;LION;49;14500;7200;16576;3;94;95;;;4101;4101;1;13023;27.64;28.94;31,7;BCS1388054;7;10
009715;12.01.2021;04:16:00;Charge to 90% ;04.12.2018;FEY;;LION;49;14500;7200;16576;3;94;95;;;4090;4090;1;13015;23.04;17.24;23,0;BCS1388054;1;16
009715;12.01.2021;04:16:03;Stop          ;04.12.2018;FEY;;LION;49;14500;7200;16576;3;94;95;;;4090;4090;1;13017;23.04;22.54;23,0;BCS1388054;1;16
009715;12.01.2021;04:17:15;Charge to 90% ;04.12.2018;FEY;;LION;49;14500;7200;16576;3;94;95;;;4090;4090;1;13015;23.04;23.34;23,5;BCS1388054;1;16
009715;12.01.2021;04:55:18;Stop          ;04.12.2018;FEY;;LION;49;14500;7200;192;3;90;90;8400;3000;4045;4045;1;13012;26.24;29.14;31,7;BCS1388054;1;16
009715;12.01.2021;05:21:33;Cycle         ;04.12.2018;FEY;;LION;49;14500;7200;192;3;90;90;8400;3000;4047;4047;1;13012;26.44;27.44;30,6;BCS1388054;1;16
009715;13.01.2021;08:18:34;Stop          ;04.12.2018;FEY;;LION;49;14500;7200;224;5;97;100;8400;;4155;4156;1;13013;26.44;27.34;30,7;BCS1388054;1;16
009715;21.02.2021;13:43:49;Normalcharge  ;04.12.2018;FEY;;LION;49;14500;7200;192;5;66;68;8400;3000;3837;3837;1;13011;23.04;24.14;27,7;BCS1388054;3;13
009715;21.02.2021;20:44:52;Stop           ;04.12.2018;FEY;;LION;49;14500;7200;224;5;97;100;8400;;4151;4152;1;13004;26.74;28.94;31,2;BCS1388054;3;13
009715;04.04.2021;11:50:39;Normalcharge  ;04.12.2018;FEY;;LION;49;14500;7200;192;6;51;53;8400;3000;3678;3678;1;12992;24.84;26.64;28,1;BCS1388054;1;9
009715;04.04.2021;11:51:54;Stop          ;04.12.2018;FEY;;LION;49;14500;7200;128;6;51;53;8400;3000;3767;3719;1;12547;24.94;29.34;28,8;BCS1388054;1;9