File: reader/backup_20210405/Batterieverzeichnis_new/009752.txt
Serialnumber ; Date ; Time ; Action ; Date of Manufacture ; Manufacturer ; Battery Name ; Device-Chemistry ; Specification-Info ; Design-Capacity [mAh] ; Design-Voltage [mV] ; Battery Status ; Cycle Count ; SOC [%] ; Relativ SOC[%] ; Desired Voltage [mV]; Desired Current [mA]; Cell Voltage 1 [mV] ; Cell Voltage 2 [mV] ; Max_Error [%] ; Busvoltage[mV] ; Battery Temperature [°C] ; Charger Temperature [°C] ; Batterysystem ; Case ; PLace
009752;07.12.2020;04:14:36;Cycle         ;04.12.2018;FEY;;LION;49;14500;7200;192;2;94;97;8400;;4125;4125;1;12996;25.54;28.44;30,3;BCS1388054;6;14
009752;08.12.2020;16:20:13;Stop          ;04.12.2018;FEY;;LION;49;14500;7200;192;2;94;97;8400;;4124;4124;1;12997;27.74;30.14;31,9;BCS1388054;6;14
009752;07.02.2021;08:46:59;Normalcharge  ;04.12.2018;FEY;;LION;49;14500;7200;192;2;90;93;8400;3000;4088;4087;1;13011;23.44;25.44;29,2;BCS1388054;4;4
009752;07.02.2021;11:52:20;Stop          ;04.12.2018;FEY;;LION;49;14500;7200;224;2;97;100;8400;;4151;4151;1;13011;25.74;26.44;29,7;BCS1388054;4;4
009752;03.03.2021;08:17:21;Normalcharge  ;04.12.2018;FEY;;LION;49;14500;7200;192;2;89;94;8400;3000;4081;4081;1;13011;23.04;22.54;23,5;BCS1388054;3;2
009752;04.03.2021;07:53:39;Stop           ;04.12.2018;FEY;;LION;49;14500;7200;224;2;95;100;8400;;4148;4148;1;13005;26.34;27.94;31,5;BCS1388054;3;2
009752;04.04.2021;11:50:02;Normalcharge  ;04.12.2018;FEY;;LION;49;14500;7200;192;2;58;61;8400;3000;3759;3759;1;13002;24.84;26.04;27,7;BCS1388054;6;14
009752;04.04.2021;11:51:24;Stop          ;04.12.2018;FEY;;LION;49;14500;7200;128;2;58;61;8400;3000;3852;3804;1;12664;24.84;29.64;28,5;BCS1388054;6;14