File: reader/backup_20210405/Batterieverzeichnis_new/009751.txt
Serialnumber ; Date ; Time ; Action ; Date of Manufacture ; Manufacturer ; Battery Name ; Device-Chemistry ; Specification-Info ; Design-Capacity [mAh] ; Design-Voltage [mV] ; Battery Status ; Cycle Count ; SOC [%] ; Relativ SOC[%] ; Desired Voltage [mV]; Desired Current [mA]; Cell Voltage 1 [mV] ; Cell Voltage 2 [mV] ; Max_Error [%] ; Busvoltage[mV] ; Battery Temperature [°C] ; Charger Temperature [°C] ; Batterysystem ; Case ; PLace
009751;07.12.2020;04:14:36;Cycle         ;04.12.2018;FEY;;LION;49;14500;7200;192;2;96;98;8400;;4145;4145;1;13007;25.74;28.54;30,3;BCS1388054;6;3
009751;08.12.2020;16:20:13;Stop          ;04.12.2018;FEY;;LION;49;14500;7200;192;2;96;98;8400;;4142;4142;1;13007;27.84;30.04;31,9;BCS1388054;6;3
009751;07.02.2021;08:47:07;Normalcharge  ;04.12.2018;FEY;;LION;49;14500;7200;192;3;74;75;8400;3000;3901;3901;1;13002;23.54;24.14;29,2;BCS1388054;5;6
009751;07.02.2021;11:50:11;Stop          ;04.12.2018;FEY;;LION;49;14500;7200;224;3;99;100;8400;;4157;4156;1;13002;25.64;25.34;30,0;BCS1388054;5;6
009751;03.03.2021;08:17:21;Normalcharge  ;04.12.2018;FEY;;LION;49;14500;7200;192;3;89;91;8400;3000;4066;4065;1;13009;23.24;22.94;23,5;BCS1388054;3;18
009751;04.03.2021;07:53:40;Stop           ;04.12.2018;FEY;;LION;49;14500;7200;224;3;99;100;8400;;4147;4146;1;13002;26.44;27.34;31,5;BCS1388054;3;18
009751;04.04.2021;11:50:33;Normalcharge  ;04.12.2018;FEY;;LION;49;14500;7200;192;3;55;57;8400;3000;3721;3721;1;13012;25.04;26.44;27,9;BCS1388054;2;9
009751;04.04.2021;11:51:48;Stop          ;04.12.2018;FEY;;LION;49;14500;7200;128;3;55;57;8400;3000;3813;3765;1;12620;25.04;29.04;28,6;BCS1388054;2;9