File: reader/backup_20210405/Batterieverzeichnis_new/009726.txt
Serialnumber ; Date ; Time ; Action ; Date of Manufacture ; Manufacturer ; Battery Name ; Device-Chemistry ; Specification-Info ; Design-Capacity [mAh] ; Design-Voltage [mV] ; Battery Status ; Cycle Count ; SOC [%] ; Relativ SOC[%] ; Desired Voltage [mV]; Desired Current [mA]; Cell Voltage 1 [mV] ; Cell Voltage 2 [mV] ; Max_Error [%] ; Busvoltage[mV] ; Battery Temperature [°C] ; Charger Temperature [°C] ; Batterysystem ; Case ; PLace
009726;12.01.2021;04:16:00;Charge to 90% ;04.12.2018;FEY;;LION;49;14500;7200;192;3;97;97;8400;;4129;4129;1;12997;23.24;19.34;23,0;BCS1388054;1;1
009726;12.01.2021;04:16:03;Stop          ;04.12.2018;FEY;;LION;49;14500;7200;192;3;97;97;8400;;4129;4129;1;12997;23.24;22.54;23,0;BCS1388054;1;1
009726;12.01.2021;04:17:15;Charge to 90% ;04.12.2018;FEY;;LION;49;14500;7200;192;3;97;97;8400;;4129;4129;1;12996;23.24;23.44;23,5;BCS1388054;1;1
009726;12.01.2021;04:55:18;Stop          ;04.12.2018;FEY;;LION;49;14500;7200;192;3;90;90;8400;3000;4061;4060;1;12993;26.94;30.04;31,7;BCS1388054;1;1
009726;12.01.2021;05:21:33;Cycle         ;04.12.2018;FEY;;LION;49;14500;7200;192;3;90;90;8400;3000;4066;4066;1;12993;27.04;28.14;30,6;BCS1388054;1;1
009726;13.01.2021;08:18:34;Stop          ;04.12.2018;FEY;;LION;49;14500;7200;224;4;97;100;8400;;4155;4156;1;12993;26.94;28.04;30,7;BCS1388054;1;1
009726;22.02.2021;17:31:46;Normalcharge  ;04.12.2018;FEY;;LION;49;14500;7200;192;5;47;49;8400;3000;3648;3648;1;12998;26.24;26.24;31,6;BCS1388054;1;18
009726;22.02.2021;23:06:28;Stop          ;04.12.2018;FEY;;LION;49;14500;7200;224;5;98;100;8400;;4156;4156;1;12998;26.54;27.54;30,6;BCS1388054;1;18