File: reader/backup_20210405/Batterieverzeichnis_new/009770.txt
Serialnumber ; Date ; Time ; Action ; Date of Manufacture ; Manufacturer ; Battery Name ; Device-Chemistry ; Specification-Info ; Design-Capacity [mAh] ; Design-Voltage [mV] ; Battery Status ; Cycle Count ; SOC [%] ; Relativ SOC[%] ; Desired Voltage [mV]; Desired Current [mA]; Cell Voltage 1 [mV] ; Cell Voltage 2 [mV] ; Max_Error [%] ; Busvoltage[mV] ; Battery Temperature [°C] ; Charger Temperature [°C] ; Batterysystem ; Case ; PLace
009770;07.12.2020;04:14:25;Cycle          ;04.12.2018;FEY;;LION;49;14500;7200;16576;3;98;98;;;4140;4141;1;13006;25.74;26.84;30,3;BCS1388054;3;17
009770;08.12.2020;16:19:50;Stop           ;04.12.2018;FEY;;LION;49;14500;7200;16576;3;98;98;;;4138;4138;1;13007;27.94;28.64;31,9;BCS1388054;3;17
009770;07.02.2021;08:47:06;Normalcharge  ;04.12.2018;FEY;;LION;49;14500;7200;192;4;91;90;8400;3000;4060;4059;1;13006;23.54;25.24;29,2;BCS1388054;5;1
009770;07.02.2021;11:50:11;Stop          ;04.12.2018;FEY;;LION;49;14500;7200;224;4;101;100;8400;;4149;4149;1;13005;25.74;26.74;30,0;BCS1388054;5;1
009770;03.03.2021;08:17:17;Normalcharge  ;04.12.2018;FEY;;LION;49;14500;7200;192;4;93;95;8400;3000;4084;4084;1;13011;23.24;23.64;23,5;BCS1388054;2;4
009770;04.03.2021;07:53:46;Stop          ;04.12.2018;FEY;;LION;49;14500;7200;224;4;99;100;8400;;4146;4146;1;13004;26.44;28.14;31,6;BCS1388054;2;4
009770;04.04.2021;11:50:39;Normalcharge  ;04.12.2018;FEY;;LION;49;14500;7200;192;4;52;54;8400;3000;3684;3684;1;12996;24.94;25.74;28,1;BCS1388054;1;10
009770;04.04.2021;11:51:54;Stop          ;04.12.2018;FEY;;LION;49;14500;7200;128;4;53;54;8400;3000;3774;3723;1;12550;25.04;28.54;28,8;BCS1388054;1;10