File: reader/as/001025.txt
Serialnumber ; Date ; Time ; Action ; Date of Manufacture ; Manufacturer ; Battery Name ; Device-Chemistry ; Specification-Info ; Design-Capacity [mAh] ; Design-Voltage [mV] ; Battery Status ; Cycle Count ; SOC [%] ; Relativ SOC[%] ; Desired Voltage [mV]; Desired Current [mA]; Cell Voltage 1 [mV] ; Cell Voltage 2 [mV] ; Max_Error [%] ; Busvoltage[mV] ; Battery Temperature [°C] ; Charger Temperature [°C] ; Batterysystem ; Case ; PLace
001025;10.12.2019;15:29:15;Charge to 30% ;28.11.2017;FEY;;LION;49;14500;7200;224;22;93;99;8400;;4124;4123;1;13034;22.44;24.04;27,1;BCS1388054;7;16
001025;10.12.2019;20:46:56;Stop          ;28.11.2017;FEY;;LION;49;14500;7200;192;23;28;30;8400;3000;3555;3555;1;13032;32.64;31.44;33,5;BCS1388054;7;16
001025;11.12.2019;08:49:12;Fastcharge    ;28.11.2017;FEY;;LION;49;14500;7200;192;23;28;30;8400;3000;3562;3562;1;13031;25.84;26.94;31,9;BCS1388054;7;16
001025;11.12.2019;13:38:42;Stop          ;28.11.2017;FEY;;LION;49;14500;7200;224;23;94;100;8400;;4163;4162;1;13032;29.74;28.94;32,7;BCS1388054;7;16
001025;11.12.2019;15:46:56;Charge to 10% ;28.11.2017;FEY;;LION;49;14500;7200;224;23;95;100;8400;;4156;4155;1;13031;26.74;27.14;31,2;BCS1388054;7;16
001025;11.12.2019;22:51:50;Stop          ;28.11.2017;FEY;;LION;49;14500;7200;192;24;10;10;8400;3000;3355;3355;1;13030;33.24;31.14;33,0;BCS1388054;7;16
001025;12.12.2019;08:45:27;Normalcharge  ;28.11.2017;FEY;;LION;49;14500;7200;192;24;9;10;8400;3000;3363;3363;1;13031;26.04;27.04;31,7;BCS1388054;7;16
001025;12.12.2019;16:41:08;Stop          ;28.11.2017;FEY;;LION;49;14500;7200;224;24;95;100;8400;;4159;4159;1;13032;28.84;28.24;31,6;BCS1388054;7;16
001025;13.12.2019;10:48:13;Charge to 10% ;28.11.2017;FEY;;LION;49;14500;7200;224;24;95;100;8400;;4150;4150;1;13032;26.04;27.14;32,0;BCS1388054;7;16
001025;13.12.2019;13:48:48;Stop          ;28.11.2017;FEY;;LION;49;14500;7200;192;24;57;61;8400;3000;3673;3727;1;13548;33.94;38.44;36,8;BCS1388054;7;16
001025;16.12.2019;07:43:34;Charge to 10% ;28.11.2017;FEY;;LION;49;14500;7200;192;24;57;61;8400;3000;3778;3779;1;13031;22.54;25.74;31,7;BCS1388054;7;16
001025;16.12.2019;11:52:34;Stop          ;28.11.2017;FEY;;LION;49;14500;7200;192;25;10;10;8400;3000;3358;3358;1;13031;32.14;31.44;34,7;BCS1388054;7;16
001025;16.12.2019;14:44:25;Charge to 90% ;28.11.2017;FEY;;LION;49;14500;7200;192;25;9;10;8400;3000;3362;3362;1;13031;28.54;28.44;31,7;BCS1388054;7;16
001025;16.12.2019;20:53:59;Stop          ;28.11.2017;FEY;;LION;49;14500;7200;192;25;84;90;8400;3000;4050;4050;1;13032;31.04;29.74;32,1;BCS1388054;7;16
001025;17.12.2019;08:38:02;Fastcharge    ;28.11.2017;FEY;;LION;49;14500;7200;192;25;84;90;8400;3000;4042;4042;1;13031;25.94;26.94;31,6;BCS1388054;7;16
001025;17.12.2019;10:36:25;Stop          ;28.11.2017;FEY;;LION;49;14500;7200;224;25;94;100;8400;;4159;4158;1;13032;27.64;28.04;31,5;BCS1388054;7;16
001025;17.12.2019;13:38:44;Charge to 10% ;28.11.2017;FEY;;LION;49;14500;7200;224;25;94;100;8400;;4152;4152;1;13032;26.34;27.04;30,8;BCS1388054;7;16
001025;17.12.2019;20:42:03;Stop          ;28.11.2017;FEY;;LION;49;14500;7200;192;26;10;10;8400;3000;3358;3358;1;13032;32.94;30.84;32,6;BCS1388054;7;16
001025;18.12.2019;08:31:43;Fastcharge    ;28.11.2017;FEY;;LION;49;14500;7200;192;26;9;10;8400;3000;3365;3365;1;13031;26.04;27.04;31,6;BCS1388054;7;16
001025;18.12.2019;14:30:48;Stop          ;28.11.2017;FEY;;LION;49;14500;7200;224;26;93;100;8400;;4161;4161;1;13031;29.64;28.64;31,6;BCS1388054;7;16
001025;19.12.2019;08:24:17;Charge to 60% ;28.11.2017;FEY;;LION;49;14500;7200;224;26;94;100;8400;;4151;4151;1;13032;25.94;26.94;31,6;BCS1388054;7;16
001025;19.12.2019;11:28:26;Stop          ;28.11.2017;FEY;;LION;49;14500;7200;192;27;57;60;8400;3000;3766;3767;1;13031;33.24;32.94;35,1;BCS1388054;7;16
001025;19.12.2019;12:16:57;Cycle         ;28.11.2017;FEY;;LION;49;14500;7200;192;27;57;60;8400;3000;3777;3778;1;13033;29.94;28.84;32,7;BCS1388054;7;16
001025;20.12.2019;17:22:28;Stop          ;28.11.2017;FEY;;LION;49;14500;7200;224;28;93;100;8400;;4154;4153;1;13031;26.34;27.24;31,9;BCS1388054;7;16
001025;06.01.2020;06:35:02;Charge to 60% ;28.11.2017;FEY;;LION;49;14500;7200;192;28;92;98;8400;;4124;4123;1;13033;26.04;26.94;31,9;BCS1388054;7;16
001025;06.01.2020;09:29:52;Stop          ;28.11.2017;FEY;;LION;49;14500;7200;192;28;56;60;8400;3000;3760;3760;1;13032;32.44;32.04;34,0;BCS1388054;7;16
001025;06.01.2020;09:50:50;Fastcharge    ;28.11.2017;FEY;;LION;49;14500;7200;192;28;56;60;8400;3000;3770;3771;1;13033;30.84;29.54;32,7;BCS1388054;7;16
001025;06.01.2020;13:05:11;Stop          ;28.11.2017;FEY;;LION;49;14500;7200;224;28;94;100;8400;;4160;4159;1;13032;29.34;28.84;32,4;BCS1388054;7;16