File: reader/as/001108.txt
Serialnumber ; Date ; Time ; Action ; Date of Manufacture ; Manufacturer ; Battery Name ; Device-Chemistry ; Specification-Info ; Design-Capacity [mAh] ; Design-Voltage [mV] ; Battery Status ; Cycle Count ; SOC [%] ; Relativ SOC[%] ; Desired Voltage [mV]; Desired Current [mA]; Cell Voltage 1 [mV] ; Cell Voltage 2 [mV] ; Max_Error [%] ; Busvoltage[mV] ; Battery Temperature [°C] ; Charger Temperature [°C] ; Batterysystem ; Case ; PLace
001108;10.12.2019;15:29:09;Charge to 30% ;19.03.2018;FEY;;LION;49;14500;7200;224;7;93;99;8400;;4122;4122;1;13011;21.74;25.04;27,1;BCS1388054;6;7
001108;10.12.2019;20:46:41;Stop          ;19.03.2018;FEY;;LION;49;14500;7200;192;8;29;30;8400;3000;3557;3557;1;13007;32.14;34.34;33,6;BCS1388054;6;7
001108;11.12.2019;08:49:03;Fastcharge    ;19.03.2018;FEY;;LION;49;14500;7200;192;8;29;30;8400;3000;3566;3567;1;13009;25.64;28.04;31,9;BCS1388054;6;7
001108;11.12.2019;13:39:30;Stop          ;19.03.2018;FEY;;LION;49;14500;7200;224;8;95;100;8400;;4162;4162;1;13009;29.44;30.54;32,5;BCS1388054;6;7
001108;11.12.2019;15:46:47;Charge to 10% ;19.03.2018;FEY;;LION;49;14500;7200;224;8;96;100;8400;;4155;4155;1;13009;26.34;28.44;31,4;BCS1388054;6;7
001108;11.12.2019;22:52:10;Stop          ;19.03.2018;FEY;;LION;49;14500;7200;192;9;10;10;8400;3000;3354;3356;1;13008;32.74;33.74;33,0;BCS1388054;6;7
001108;12.12.2019;08:45:18;Normalcharge  ;19.03.2018;FEY;;LION;49;14500;7200;192;9;8;9;8400;3000;3364;3365;1;13008;25.74;28.24;31,7;BCS1388054;6;7
001108;12.12.2019;16:41:29;Stop          ;19.03.2018;FEY;;LION;49;14500;7200;224;9;95;100;8400;;4161;4160;1;13008;28.54;29.94;31,5;BCS1388054;6;7
001108;13.12.2019;10:48:09;Charge to 10% ;19.03.2018;FEY;;LION;49;14500;7200;224;9;95;100;8400;;4150;4150;1;13008;25.74;28.24;32,0;BCS1388054;6;7
001108;13.12.2019;13:51:54;Stop          ;19.03.2018;FEY;;LION;49;14500;7200;192;9;57;60;8400;3000;3677;3732;1;13490;33.34;40.64;36,1;BCS1388054;6;7
001108;13.12.2019;13:53:13;Fastcharge    ;19.03.2018;FEY;;LION;49;14500;7200;192;9;57;60;8400;3000;3766;3767;1;13005;33.34;38.14;35,8;BCS1388054;6;7
001108;13.12.2019;13:53:19;Stop          ;19.03.2018;FEY;;LION;49;14500;7200;192;9;57;60;8400;3000;3766;3767;1;12995;33.34;37.94;35,8;BCS1388054;6;7
001108;13.12.2019;13:53:25;Normalcharge  ;19.03.2018;FEY;;LION;49;14500;7200;192;9;57;60;8400;3000;3766;3768;1;13006;33.34;37.94;35,8;BCS1388054;6;7
001108;13.12.2019;20:04:59;Stop          ;19.03.2018;FEY;;LION;49;14500;7200;224;9;96;100;8400;;4155;4154;1;13008;27.34;29.24;32,0;BCS1388054;6;7
001108;16.12.2019;07:43:27;Charge to 10% ;19.03.2018;FEY;;LION;49;14500;7200;224;9;95;100;8400;;4146;4146;1;13009;25.54;27.34;31,7;BCS1388054;6;7
001108;16.12.2019;14:43:10;Stop          ;19.03.2018;FEY;;LION;49;14500;7200;192;10;10;10;8400;3000;3357;3359;1;13009;30.74;32.04;31,7;BCS1388054;6;7
001108;16.12.2019;14:44:21;Charge to 90% ;19.03.2018;FEY;;LION;49;14500;7200;192;10;10;10;8400;3000;3357;3359;1;13009;30.64;31.54;31,9;BCS1388054;6;7
001108;16.12.2019;20:54:26;Stop          ;19.03.2018;FEY;;LION;49;14500;7200;192;10;85;90;8400;3000;4052;4053;1;13010;31.04;32.24;32,1;BCS1388054;6;7
001108;17.12.2019;08:37:57;Fastcharge    ;19.03.2018;FEY;;LION;49;14500;7200;192;10;85;90;8400;3000;4043;4043;1;13009;25.64;28.04;31,6;BCS1388054;6;7
001108;17.12.2019;13:38:40;Charge to 10% ;19.03.2018;FEY;;LION;49;14500;7200;224;10;95;100;8400;;4152;4152;1;13009;25.94;28.04;30,8;BCS1388054;6;7
001108;17.12.2019;20:41:41;Stop          ;19.03.2018;FEY;;LION;49;14500;7200;192;11;10;10;8400;3000;3357;3359;1;13009;32.64;34.04;32,6;BCS1388054;6;7
001108;18.12.2019;08:31:34;Fastcharge    ;19.03.2018;FEY;;LION;49;14500;7200;192;11;8;9;8400;3000;3367;3369;1;13008;25.74;28.14;31,6;BCS1388054;6;7
001108;18.12.2019;14:33:31;Stop          ;19.03.2018;FEY;;LION;49;14500;7200;224;11;94;100;8400;;4161;4161;1;13010;29.24;30.04;31,4;BCS1388054;6;7
001108;19.12.2019;08:24:06;Charge to 60% ;19.03.2018;FEY;;LION;49;14500;7200;224;11;95;100;8400;;4151;4151;1;13009;25.64;28.04;31,5;BCS1388054;6;7
001108;19.12.2019;11:34:24;Stop          ;19.03.2018;FEY;;LION;49;14500;7200;192;12;57;60;8400;3000;3779;3781;1;13009;32.44;33.64;33,5;BCS1388054;6;7
001108;19.12.2019;12:16:53;Cycle         ;19.03.2018;FEY;;LION;49;14500;7200;192;12;57;60;8400;3000;3785;3787;1;13010;29.44;30.14;32,7;BCS1388054;6;7
001108;20.12.2019;17:31:05;Stop          ;19.03.2018;FEY;;LION;49;14500;7200;224;13;94;100;8400;;4154;4154;1;13009;26.04;27.94;30,6;BCS1388054;6;7
001108;06.01.2020;06:34:58;Charge to 60% ;19.03.2018;FEY;;LION;49;14500;7200;192;13;92;98;8400;;4124;4124;1;13009;25.84;28.14;31,9;BCS1388054;6;7
001108;06.01.2020;09:30:42;Stop          ;19.03.2018;FEY;;LION;49;14500;7200;192;14;57;60;8400;3000;3773;3775;1;13010;31.84;34.54;33,7;BCS1388054;6;7
001108;06.01.2020;09:50:46;Fastcharge    ;19.03.2018;FEY;;LION;49;14500;7200;192;14;57;60;8400;3000;3783;3785;1;13010;30.54;30.74;32,7;BCS1388054;6;7
001108;06.01.2020;13:06:22;Stop          ;19.03.2018;FEY;;LION;49;14500;7200;224;14;94;100;8400;;4159;4159;1;13011;28.84;30.14;32,1;BCS1388054;6;7