File: reader/as/009551.txt
Serialnumber ; Date ; Time ; Action ; Date of Manufacture ; Manufacturer ; Battery Name ; Device-Chemistry ; Specification-Info ; Design-Capacity [mAh] ; Design-Voltage [mV] ; Battery Status ; Cycle Count ; SOC [%] ; Relativ SOC[%] ; Desired Voltage [mV]; Desired Current [mA]; Cell Voltage 1 [mV] ; Cell Voltage 2 [mV] ; Max_Error [%] ; Busvoltage[mV] ; Battery Temperature [°C] ; Charger Temperature [°C] ; Batterysystem ; Case ; PLace
009551;12.01.2021;04:17:22;Charge to 90% ;03.12.2018;FEY;;LION;49;14500;7200;16576;5;97;98;;;4129;4128;1;13009;22.94;23.84;23,5;BCS1388054;2;8
009551;12.01.2021;04:54:21;Stop          ;03.12.2018;FEY;;LION;49;14500;7200;192;5;90;90;8400;3000;4048;4046;1;13001;26.34;31.64;31,9;BCS1388054;2;8
009551;12.01.2021;05:21:40;Cycle         ;03.12.2018;FEY;;LION;49;14500;7200;192;5;90;90;8400;3000;4060;4059;1;13002;26.74;28.74;30,6;BCS1388054;2;8
009551;13.01.2021;08:20:19;Stop          ;03.12.2018;FEY;;LION;49;14500;7200;224;6;97;100;8400;;4156;4156;1;13002;27.04;28.54;30,8;BCS1388054;2;8
009551;21.02.2021;13:44:56;Normalcharge  ;03.12.2018;FEY;;LION;49;14500;7200;192;7;64;66;8400;3000;3814;3813;1;13001;22.74;23.74;27,7;BCS1388054;5;7
009551;21.02.2021;19:31:36;Stop          ;03.12.2018;FEY;;LION;49;14500;7200;224;7;98;100;8400;;4154;4152;1;12998;27.14;29.14;30,6;BCS1388054;5;7
009551;06.04.2021;08:39:16;Normalcharge  ;03.12.2018;FEY;;LION;49;14500;7200;224;7;96;99;8400;;4130;4128;1;13002;21.04;25.64;28,1;BCS1388054;6;14
009551;06.04.2021;08:40:04;Stop          ;03.12.2018;FEY;;LION;49;14500;7200;224;7;96;99;8400;;4130;4128;1;12968;21.04;25.94;28,5;BCS1388054;6;14
009551;08.04.2021;07:58:44;Normalcharge  ;03.12.2018;FEY;;LION;49;14500;7200;224;7;96;99;8400;;4129;4128;1;13000;24.94;25.04;26,4;BCS1388054;6;14
009551;08.04.2021;07:59:23;Stop          ;03.12.2018;FEY;;LION;49;14500;7200;224;7;96;99;8400;;4129;4128;1;12999;25.04;25.64;26,7;BCS1388054;6;14
009551;08.04.2021;10:36:16;Normalcharge  ;03.12.2018;FEY;;LION;49;14500;7200;224;7;96;99;8400;;4129;4128;1;13003;25.24;26.34;28,6;BCS1388054;6;14
009551;08.04.2021;10:37:11;Stop          ;03.12.2018;FEY;;LION;49;14500;7200;224;7;96;99;8400;;4129;4128;1;12970;25.24;26.74;29,2;BCS1388054;6;14
009551;18.04.2021;08:34:33;Normalcharge  ;03.12.2018;FEY;;LION;49;14500;7200;224;7;96;99;8400;;4126;4124;1;12998;25.94;27.14;28,2;BCS1388054;6;14
009551;18.04.2021;08:34:41;Stop          ;03.12.2018;FEY;;LION;49;14500;7200;224;7;96;99;8400;;4126;4124;1;12995;25.94;27.34;28,2;BCS1388054;6;14
009551;04.08.2021;07:24:35;Normalcharge  ;03.12.2018;FEY;;LION;49;14500;7200;192;7;94;96;8400;;4096;4094;1;12994;29.94;30.74;31,5;BCS1388054;6;14
009551;04.08.2021;07:25:17;Stop          ;03.12.2018;FEY;;LION;49;14500;7200;192;7;94;96;8400;;4095;4094;1;12971;29.94;31.04;31,6;BCS1388054;6;14
009551;22.08.2021;11:07:59;Normalcharge  ;03.12.2018;FEY;;LION;49;14500;7200;192;7;74;77;8400;3000;3907;3906;1;12998;22.84;29.64;32,1;BCS1388054;3;10
009551;22.08.2021;11:08:33;Stop           ;03.12.2018;FEY;;LION;49;14500;7200;128;7;74;77;8400;3000;3968;3934;1;12681;22.84;30.94;32,4;BCS1388054;3;10