File: reader/as/009512.txt
Serialnumber ; Date ; Time ; Action ; Date of Manufacture ; Manufacturer ; Battery Name ; Device-Chemistry ; Specification-Info ; Design-Capacity [mAh] ; Design-Voltage [mV] ; Battery Status ; Cycle Count ; SOC [%] ; Relativ SOC[%] ; Desired Voltage [mV]; Desired Current [mA]; Cell Voltage 1 [mV] ; Cell Voltage 2 [mV] ; Max_Error [%] ; Busvoltage[mV] ; Battery Temperature [°C] ; Charger Temperature [°C] ; Batterysystem ; Case ; PLace
009512;07.02.2021;08:46:49;Normalcharge  ;04.12.2018;FEY;;LION;49;14500;7200;16576;3;93;96;;;4109;4110;1;13003;23.54;25.44;29,2;BCS1388054;2;16
009512;07.02.2021;11:52:12;Stop          ;04.12.2018;FEY;;LION;49;14500;7200;16576;3;93;96;;;4109;4111;1;13005;25.74;27.04;29,7;BCS1388054;2;16
009512;03.03.2021;08:17:29;Normalcharge  ;04.12.2018;FEY;;LION;49;14500;7200;192;3;82;85;8400;3000;3991;3993;1;13008;23.04;23.04;23,5;BCS1388054;4;17
009512;03.03.2021;10:32:46;Stop          ;04.12.2018;FEY;;LION;49;14500;7200;224;3;96;100;8400;;4158;4162;1;13002;28.14;29.24;32,0;BCS1388054;4;17
009512;04.04.2021;11:50:22;Normalcharge  ;04.12.2018;FEY;;LION;49;14500;7200;192;4;52;55;8400;3000;3696;3697;1;13017;24.94;26.64;27,9;BCS1388054;4;16
009512;04.04.2021;11:51:36;Stop          ;04.12.2018;FEY;;LION;49;14500;7200;128;4;52;55;8400;3000;3785;3739;1;12724;24.94;29.24;28,6;BCS1388054;4;16
009512;05.04.2021;09:38:00;Ladung auf 60% ;04.12.2018;FEY;;LION;49;14500;7200;192;4;52;55;8400;3000;3699;3700;1;13003;25.04;25.04;26,3;BCS1388054;3;16
009512;05.04.2021;10:06:07;Stop           ;04.12.2018;FEY;;LION;49;14500;7200;192;4;56;60;8400;3000;3764;3764;1;13001;27.04;28.64;31,4;BCS1388054;3;16
009512;22.08.2021;11:07:55;Normalcharge  ;04.12.2018;FEY;;LION;49;14500;7200;192;4;43;46;8400;3000;3623;3624;1;12980;22.54;30.44;32,0;BCS1388054;2;7
009512;22.08.2021;11:08:28;Stop          ;04.12.2018;FEY;;LION;49;14500;7200;128;4;43;46;8400;3000;3669;3643;1;12599;22.64;31.54;32,4;BCS1388054;2;7
009512;25.08.2021;08:14:57;Charge to 60% ;04.12.2018;FEY;;LION;49;14500;7200;192;4;43;45;8400;3000;3625;3626;1;12984;30.34;31.94;33,2;BCS1388054;6;18
009512;25.08.2021;09:50:39;Stop          ;04.12.2018;FEY;;LION;49;14500;7200;192;4;56;60;8400;3000;3734;3736;1;12984;33.34;35.04;36,4;BCS1388054;6;18