File: reader/as/009566.txt
Serialnumber ; Date ; Time ; Action ; Date of Manufacture ; Manufacturer ; Battery Name ; Device-Chemistry ; Specification-Info ; Design-Capacity [mAh] ; Design-Voltage [mV] ; Battery Status ; Cycle Count ; SOC [%] ; Relativ SOC[%] ; Desired Voltage [mV]; Desired Current [mA]; Cell Voltage 1 [mV] ; Cell Voltage 2 [mV] ; Max_Error [%] ; Busvoltage[mV] ; Battery Temperature [°C] ; Charger Temperature [°C] ; Batterysystem ; Case ; PLace
009566;10.12.2019;15:29:01;Charge to 30% ;04.12.2018;FEY;;LION;49;14500;7200;224;48;93;100;8400;;4131;4131;1;13007;22.64;24.44;27,1;BCS1388054;5;14
009566;10.12.2019;20:48:54;Stop          ;04.12.2018;FEY;;LION;49;14500;7200;192;49;28;30;8400;3000;3560;3559;1;13000;33.94;35.14;33,1;BCS1388054;5;14
009566;11.12.2019;08:48:53;Fastcharge    ;04.12.2018;FEY;;LION;49;14500;7200;192;49;28;30;8400;3000;3568;3567;1;13003;26.74;28.44;31,9;BCS1388054;5;14
009566;11.12.2019;13:40:11;Stop          ;04.12.2018;FEY;;LION;49;14500;7200;224;49;94;100;8400;;4161;4163;1;13002;30.84;31.64;32,4;BCS1388054;5;14
009566;11.12.2019;15:46:40;Charge to 10% ;04.12.2018;FEY;;LION;49;14500;7200;224;49;95;100;8400;;4154;4154;1;13002;27.54;28.94;31,4;BCS1388054;5;14
009566;11.12.2019;22:49:07;Stop          ;04.12.2018;FEY;;LION;49;14500;7200;192;50;10;10;8400;3000;3359;3357;1;13001;34.84;35.54;33,5;BCS1388054;5;14
009566;12.12.2019;08:45:10;Normalcharge  ;04.12.2018;FEY;;LION;49;14500;7200;192;50;9;9;8400;3000;3368;3366;1;13003;26.84;28.64;31,7;BCS1388054;5;14
009566;12.12.2019;16:41:20;Stop          ;04.12.2018;FEY;;LION;49;14500;7200;224;50;95;100;8400;;4160;4161;1;13002;29.84;30.84;31,6;BCS1388054;5;14
009566;13.12.2019;10:48:05;Charge to 10% ;04.12.2018;FEY;;LION;49;14500;7200;224;50;95;100;8400;;4149;4149;1;13002;26.94;28.64;32,0;BCS1388054;5;14
009566;13.12.2019;15:40:55;Stop          ;04.12.2018;FEY;;LION;49;14500;7200;192;50;34;36;8400;3000;3501;3551;1;13508;33.64;41.74;34,6;BCS1388054;5;14
009566;13.12.2019;15:41:42;Cycle         ;04.12.2018;FEY;;LION;49;14500;7200;192;50;34;36;8400;3000;3583;3582;1;13000;33.64;39.24;34,5;BCS1388054;5;14
009566;14.12.2019;22:39:35;Stop          ;04.12.2018;FEY;;LION;49;14500;7200;224;52;93;100;8400;;4151;4148;1;13003;26.94;28.54;31,7;BCS1388054;5;14
009566;16.12.2019;07:43:20;Charge to 10% ;04.12.2018;FEY;;LION;49;14500;7200;224;52;93;100;8400;;4145;4142;1;13004;26.74;27.94;31,9;BCS1388054;5;14
009566;16.12.2019;14:34:29;Stop          ;04.12.2018;FEY;;LION;49;14500;7200;192;53;10;10;8400;3000;3368;3365;1;13002;33.14;34.54;32,5;BCS1388054;5;14
009566;16.12.2019;14:44:17;Charge to 90% ;04.12.2018;FEY;;LION;49;14500;7200;192;53;10;10;8400;3000;3370;3367;1;13003;32.34;31.74;31,9;BCS1388054;5;14
009566;16.12.2019;20:48:55;Stop          ;04.12.2018;FEY;;LION;49;14500;7200;192;53;84;90;8400;3000;4055;4055;1;13004;32.74;33.94;31,9;BCS1388054;5;14
009566;17.12.2019;08:37:54;Fastcharge    ;04.12.2018;FEY;;LION;49;14500;7200;192;53;84;90;8400;3000;4046;4045;1;13003;26.84;28.44;31,6;BCS1388054;5;14
009566;17.12.2019;10:33:46;Stop          ;04.12.2018;FEY;;LION;49;14500;7200;224;53;94;100;8400;;4159;4159;1;13003;28.74;30.04;31,1;BCS1388054;5;14
009566;17.12.2019;10:33:46;Stop          ;04.12.2018;FEY;;LION;49;14500;7200;224;53;94;100;8400;;4159;4159;1;13003;28.74;30.04;31,1;BCS1388054;5;14
009566;17.12.2019;13:38:36;Charge to 10% ;04.12.2018;FEY;;LION;49;14500;7200;224;53;94;100;8400;;4150;4149;1;13004;27.14;28.54;30,8;BCS1388054;5;14
009566;17.12.2019;20:33:18;Stop          ;04.12.2018;FEY;;LION;49;14500;7200;192;54;10;10;8400;3000;3363;3361;1;13001;34.94;36.14;34,5;BCS1388054;5;14
009566;18.12.2019;08:31:30;Fastcharge    ;04.12.2018;FEY;;LION;49;14500;7200;192;54;10;10;8400;3000;3373;3372;1;13003;26.94;28.64;31,6;BCS1388054;5;14
009566;18.12.2019;14:29:28;Stop          ;04.12.2018;FEY;;LION;49;14500;7200;224;54;94;100;8400;;4161;4164;1;13003;30.94;31.44;31,7;BCS1388054;5;14
009566;19.12.2019;08:24:02;Charge to 60% ;04.12.2018;FEY;;LION;49;14500;7200;224;54;95;100;8400;;4150;4151;1;13003;26.84;28.44;31,5;BCS1388054;5;14
009566;19.12.2019;11:31:09;Stop          ;04.12.2018;FEY;;LION;49;14500;7200;192;54;57;60;8400;3000;3772;3772;1;13000;34.44;36.14;34,4;BCS1388054;5;14
009566;19.12.2019;12:16:49;Cycle         ;04.12.2018;FEY;;LION;49;14500;7200;192;54;57;60;8400;3000;3780;3782;1;13003;31.14;31.04;32,7;BCS1388054;5;14
009566;20.12.2019;17:27:50;Stop          ;04.12.2018;FEY;;LION;49;14500;7200;224;56;93;100;8400;;4153;4151;1;13004;27.34;28.64;31,0;BCS1388054;5;14
009566;06.01.2020;06:34:55;Charge to 60% ;04.12.2018;FEY;;LION;49;14500;7200;192;56;92;98;8400;;4123;4122;1;13004;27.14;28.64;31,9;BCS1388054;5;14
009566;06.01.2020;09:30:26;Stop          ;04.12.2018;FEY;;LION;49;14500;7200;192;56;56;60;8400;3000;3775;3773;1;13001;33.64;35.74;33,9;BCS1388054;5;14
009566;06.01.2020;09:50:42;Fastcharge    ;04.12.2018;FEY;;LION;49;14500;7200;192;56;56;60;8400;3000;3782;3781;1;13004;32.14;31.74;32,7;BCS1388054;5;14
009566;06.01.2020;13:09:56;Stop          ;04.12.2018;FEY;;LION;49;14500;7200;224;56;94;100;8400;;4159;4158;1;13004;30.34;30.84;31,4;BCS1388054;5;14