File: reader/as/009521.txt
Serialnumber ; Date ; Time ; Action ; Date of Manufacture ; Manufacturer ; Battery Name ; Device-Chemistry ; Specification-Info ; Design-Capacity [mAh] ; Design-Voltage [mV] ; Battery Status ; Cycle Count ; SOC [%] ; Relativ SOC[%] ; Desired Voltage [mV]; Desired Current [mA]; Cell Voltage 1 [mV] ; Cell Voltage 2 [mV] ; Max_Error [%] ; Busvoltage[mV] ; Battery Temperature [°C] ; Charger Temperature [°C] ; Batterysystem ; Case ; PLace
009521;10.12.2019;15:28:41;Charge to 30% ;04.12.2018;FEY;;LION;49;14500;7200;224;49;93;100;8400;;4133;4132;1;12999;22.84;24.74;27,1;BCS1388054;2;15
009521;10.12.2019;20:48:37;Stop          ;04.12.2018;FEY;;LION;49;14500;7200;192;50;28;30;8400;3000;3560;3558;1;12996;34.04;35.14;33,2;BCS1388054;2;15
009521;11.12.2019;08:48:24;Fastcharge    ;04.12.2018;FEY;;LION;49;14500;7200;192;50;28;30;8400;3000;3569;3567;1;12998;26.34;28.44;31,9;BCS1388054;2;15
009521;11.12.2019;13:39:47;Stop          ;04.12.2018;FEY;;LION;49;14500;7200;224;50;94;100;8400;;4161;4158;1;12998;31.04;31.54;32,5;BCS1388054;2;15
009521;11.12.2019;15:46:18;Charge to 10% ;04.12.2018;FEY;;LION;49;14500;7200;224;50;95;100;8400;;4153;4151;1;12998;27.34;29.04;31,4;BCS1388054;2;15
009521;11.12.2019;22:49:04;Stop          ;04.12.2018;FEY;;LION;49;14500;7200;192;51;10;10;8400;3000;3355;3352;1;12997;34.94;35.74;33,6;BCS1388054;2;15
009521;12.12.2019;08:44:52;Normalcharge  ;04.12.2018;FEY;;LION;49;14500;7200;192;51;9;10;8400;3000;3364;3362;1;12998;26.54;28.64;31,9;BCS1388054;2;15
009521;12.12.2019;16:40:06;Stop          ;04.12.2018;FEY;;LION;49;14500;7200;224;51;95;100;8400;;4161;4160;1;12998;29.84;31.04;31,7;BCS1388054;2;15
009521;13.12.2019;10:47:50;Charge to 10% ;04.12.2018;FEY;;LION;49;14500;7200;224;51;95;100;8400;;4149;4148;1;12999;26.54;28.64;32,0;BCS1388054;2;15
009521;13.12.2019;15:42:08;Cycle         ;04.12.2018;FEY;;LION;49;14500;7200;192;52;34;36;8400;3000;3500;3548;1;13564;33.74;41.24;34,6;BCS1388054;2;15
009521;13.12.2019;15:42:08;Stop          ;04.12.2018;FEY;;LION;49;14500;7200;192;52;34;36;8400;3000;3500;3548;1;13564;33.74;41.24;34,6;BCS1388054;2;15
009521;14.12.2019;22:48:51;Stop          ;04.12.2018;FEY;;LION;49;14500;7200;224;53;93;99;8400;;4152;4149;1;12997;26.74;28.64;32,0;BCS1388054;2;15
009521;16.12.2019;07:43:06;Charge to 10% ;04.12.2018;FEY;;LION;49;14500;7200;224;53;93;100;8400;;4146;4143;1;12999;26.24;28.14;31,9;BCS1388054;2;15
009521;16.12.2019;14:37:54;Stop          ;04.12.2018;FEY;;LION;49;14500;7200;192;54;10;10;8400;3000;3366;3363;1;12999;33.44;34.04;32,4;BCS1388054;2;15
009521;16.12.2019;14:44:03;Charge to 90% ;04.12.2018;FEY;;LION;49;14500;7200;192;54;10;10;8400;3000;3368;3365;1;12999;32.94;32.64;31,9;BCS1388054;2;15
009521;16.12.2019;20:51:09;Stop          ;04.12.2018;FEY;;LION;49;14500;7200;192;54;84;90;8400;3000;4054;4053;1;13000;32.54;33.04;31,6;BCS1388054;2;15
009521;17.12.2019;08:37:41;Fastcharge    ;04.12.2018;FEY;;LION;49;14500;7200;192;54;84;90;8400;3000;4046;4044;1;12997;26.34;28.44;31,6;BCS1388054;2;15
009521;17.12.2019;10:30:36;Stop          ;04.12.2018;FEY;;LION;49;14500;7200;224;54;94;100;8400;;4162;4162;1;12999;28.34;31.04;31,5;BCS1388054;2;15
009521;17.12.2019;13:38:22;Charge to 10% ;04.12.2018;FEY;;LION;49;14500;7200;224;54;94;100;8400;;4150;4149;1;12998;26.74;28.64;30,8;BCS1388054;2;15
009521;17.12.2019;20:36:00;Stop          ;04.12.2018;FEY;;LION;49;14500;7200;192;55;10;10;8400;3000;3364;3362;1;12998;34.74;35.24;33,6;BCS1388054;2;15
009521;18.12.2019;08:31:17;Fastcharge    ;04.12.2018;FEY;;LION;49;14500;7200;192;55;10;10;8400;3000;3373;3371;1;12998;26.44;28.54;31,6;BCS1388054;2;15
009521;18.12.2019;14:28:27;Stop          ;04.12.2018;FEY;;LION;49;14500;7200;224;55;94;100;8400;;4160;4162;1;12998;31.04;31.54;32,0;BCS1388054;2;15
009521;19.12.2019;08:23:50;Charge to 60% ;04.12.2018;FEY;;LION;49;14500;7200;224;55;95;100;8400;;4149;4150;1;12999;26.34;28.44;31,5;BCS1388054;2;15
009521;19.12.2019;11:32:11;Stop          ;04.12.2018;FEY;;LION;49;14500;7200;192;56;57;60;8400;3000;3766;3765;1;12998;34.44;35.94;34,0;BCS1388054;2;15
009521;19.12.2019;12:16:37;Cycle         ;04.12.2018;FEY;;LION;49;14500;7200;192;56;57;60;8400;3000;3774;3773;1;12999;31.34;31.14;32,7;BCS1388054;2;15
009521;20.12.2019;17:35:47;Stop          ;04.12.2018;FEY;;LION;49;14500;7200;224;57;93;100;8400;;4151;4149;1;13000;26.74;28.44;31,1;BCS1388054;2;15
009521;06.01.2020;06:34:42;Charge to 60% ;04.12.2018;FEY;;LION;49;14500;7200;224;57;92;99;8400;;4123;4121;1;12999;26.44;28.44;31,9;BCS1388054;2;15
009521;06.01.2020;09:32:11;Stop          ;04.12.2018;FEY;;LION;49;14500;7200;192;58;56;60;8400;3000;3769;3765;1;12999;33.64;35.04;33,2;BCS1388054;2;15
009521;06.01.2020;09:50:30;Fastcharge    ;04.12.2018;FEY;;LION;49;14500;7200;192;58;56;60;8400;3000;3775;3771;1;12999;32.34;32.04;32,7;BCS1388054;2;15
009521;06.01.2020;13:08:34;Stop          ;04.12.2018;FEY;;LION;49;14500;7200;224;58;93;100;8400;;4160;4159;1;13000;30.44;31.04;31,6;BCS1388054;2;15