File: reader/as/009580.txt
Serialnumber ; Date ; Time ; Action ; Date of Manufacture ; Manufacturer ; Battery Name ; Device-Chemistry ; Specification-Info ; Design-Capacity [mAh] ; Design-Voltage [mV] ; Battery Status ; Cycle Count ; SOC [%] ; Relativ SOC[%] ; Desired Voltage [mV]; Desired Current [mA]; Cell Voltage 1 [mV] ; Cell Voltage 2 [mV] ; Max_Error [%] ; Busvoltage[mV] ; Battery Temperature [°C] ; Charger Temperature [°C] ; Batterysystem ; Case ; PLace
009580;12.01.2021;04:17:22;Charge to 90% ;04.12.2018;FEY;;LION;49;14500;7200;192;2;93;95;8400;3000;4104;4103;1;13000;23.24;23.24;23,5;BCS1388054;2;13
009580;12.01.2021;04:54:21;Stop          ;04.12.2018;FEY;;LION;49;14500;7200;192;2;89;90;8400;3000;4057;4056;1;12992;26.34;30.34;31,9;BCS1388054;2;13
009580;12.01.2021;05:21:40;Cycle         ;04.12.2018;FEY;;LION;49;14500;7200;192;2;89;90;8400;3000;4059;4059;1;12994;26.94;28.34;30,6;BCS1388054;2;13
009580;13.01.2021;08:20:19;Stop          ;04.12.2018;FEY;;LION;49;14500;7200;224;4;97;100;8400;;4157;4156;1;12993;27.14;28.24;30,8;BCS1388054;2;13
009580;21.02.2021;13:43:49;Normalcharge  ;04.12.2018;FEY;;LION;49;14500;7200;192;4;59;61;8400;3000;3749;3744;1;13015;23.04;22.44;27,7;BCS1388054;3;17
009580;21.02.2021;20:44:52;Stop           ;04.12.2018;FEY;;LION;49;14500;7200;224;4;97;100;8400;;4153;4151;1;13010;26.74;27.24;31,2;BCS1388054;3;17
009580;06.04.2021;08:39:03;Normalcharge  ;04.12.2018;FEY;;LION;49;14500;7200;224;4;95;99;8400;;4128;4126;1;12995;21.94;25.64;28,1;BCS1388054;4;2
009580;06.04.2021;08:39:53;Stop          ;04.12.2018;FEY;;LION;49;14500;7200;224;4;95;99;8400;;4128;4126;1;12993;22.04;26.24;28,4;BCS1388054;4;2
009580;08.04.2021;07:58:12;Normalcharge  ;04.12.2018;FEY;;LION;49;14500;7200;224;4;95;99;8400;;4128;4126;1;12995;25.34;22.54;26,3;BCS1388054;4;2
009580;08.04.2021;07:59:34;Stop          ;04.12.2018;FEY;;LION;49;14500;7200;224;4;95;99;8400;;4127;4125;1;12976;25.34;26.64;26,7;BCS1388054;4;2
009580;08.04.2021;10:36:07;Normalcharge  ;04.12.2018;FEY;;LION;49;14500;7200;224;4;95;99;8400;;4127;4126;1;12994;25.54;26.74;28,5;BCS1388054;4;2
009580;08.04.2021;10:37:03;Stop          ;04.12.2018;FEY;;LION;49;14500;7200;224;4;95;99;8400;;4127;4125;1;12973;25.54;27.24;29,0;BCS1388054;4;2
009580;18.04.2021;08:34:04;Normalcharge  ;04.12.2018;FEY;;LION;49;14500;7200;224;4;95;99;8400;;4124;4122;1;12993;26.24;27.64;27,9;BCS1388054;4;2
009580;18.04.2021;08:34:10;Stop          ;04.12.2018;FEY;;LION;49;14500;7200;224;4;95;99;8400;;4124;4122;1;12993;26.24;27.64;28,1;BCS1388054;4;2
009580;04.08.2021;07:24:46;Normalcharge  ;04.12.2018;FEY;;LION;49;14500;7200;192;4;93;96;8400;;4092;4090;1;12991;30.34;31.34;31,5;BCS1388054;4;2
009580;04.08.2021;07:25:30;Stop          ;04.12.2018;FEY;;LION;49;14500;7200;192;4;93;96;8400;;4092;4090;1;12969;30.44;31.84;31,7;BCS1388054;4;2
009580;22.08.2021;11:37:17;Normalcharge  ;04.12.2018;FEY;;LION;49;14500;7200;192;4;93;96;8400;;4087;4085;1;12979;22.34;27.74;31,9;BCS1388054;6;16
009580;22.08.2021;11:37:57;Stop          ;04.12.2018;FEY;;LION;49;14500;7200;192;4;93;96;8400;;4087;4085;1;12832;22.34;27.94;32,0;BCS1388054;6;16