File: reader/as/009518.txt
Serialnumber ; Date ; Time ; Action ; Date of Manufacture ; Manufacturer ; Battery Name ; Device-Chemistry ; Specification-Info ; Design-Capacity [mAh] ; Design-Voltage [mV] ; Battery Status ; Cycle Count ; SOC [%] ; Relativ SOC[%] ; Desired Voltage [mV]; Desired Current [mA]; Cell Voltage 1 [mV] ; Cell Voltage 2 [mV] ; Max_Error [%] ; Busvoltage[mV] ; Battery Temperature [°C] ; Charger Temperature [°C] ; Batterysystem ; Case ; PLace
009518;10.12.2019;15:28:34;Charge to 30% ;03.12.2018;FEY;;LION;49;14500;7200;192;44;93;98;8400;;4109;4109;1;13016;23.24;25.64;27,1;BCS1388054;1;16
009518;10.12.2019;20:42:17;Stop          ;03.12.2018;FEY;;LION;49;14500;7200;192;45;29;30;8400;3000;3548;3547;1;13016;32.34;35.94;34,1;BCS1388054;1;16
009518;11.12.2019;08:48:18;Fastcharge    ;03.12.2018;FEY;;LION;49;14500;7200;192;45;29;30;8400;3000;3566;3566;1;13016;25.74;27.54;31,9;BCS1388054;1;16
009518;11.12.2019;13:40:21;Stop          ;03.12.2018;FEY;;LION;49;14500;7200;224;45;96;100;8400;;4162;4162;1;13017;29.14;29.74;32,4;BCS1388054;1;16
009518;11.12.2019;15:45:57;Charge to 30% ;03.12.2018;FEY;;LION;49;14500;7200;224;45;97;100;8400;;4152;4152;1;13015;26.54;27.74;31,5;BCS1388054;1;16
009518;11.12.2019;15:46:00;Stop          ;03.12.2018;FEY;;LION;49;14500;7200;224;45;97;100;8400;;4152;4151;1;13016;26.54;27.84;31,5;BCS1388054;1;16
009518;11.12.2019;15:46:13;Charge to 10% ;03.12.2018;FEY;;LION;49;14500;7200;224;45;97;100;8400;;4152;4152;1;13016;26.54;27.74;31,5;BCS1388054;1;16
009518;11.12.2019;22:50:20;Stop          ;03.12.2018;FEY;;LION;49;14500;7200;192;46;10;10;8400;3000;3351;3350;1;13016;32.94;32.64;33,4;BCS1388054;1;16
009518;12.12.2019;08:44:40;Normalcharge  ;03.12.2018;FEY;;LION;49;14500;7200;192;46;9;9;8400;3000;3362;3362;1;13016;25.94;27.64;31,9;BCS1388054;1;16
009518;12.12.2019;16:39:22;Stop          ;03.12.2018;FEY;;LION;49;14500;7200;224;46;97;100;8400;;4163;4163;1;13016;28.44;29.54;31,7;BCS1388054;1;16
009518;13.12.2019;10:47:47;Charge to 10% ;03.12.2018;FEY;;LION;49;14500;7200;224;46;97;100;8400;;4147;4147;1;13016;25.94;27.74;32,0;BCS1388054;1;16
009518;13.12.2019;15:41:58;Stop          ;03.12.2018;FEY;;LION;49;14500;7200;192;47;35;37;8400;3000;3503;3553;1;13656;31.94;37.14;34,6;BCS1388054;1;16
009518;13.12.2019;15:42:01;Cycle         ;03.12.2018;FEY;;LION;49;14500;7200;192;47;35;37;8400;3000;3503;3553;1;13015;31.94;37.14;34,6;BCS1388054;1;16
009518;14.12.2019;22:41:25;Stop          ;03.12.2018;FEY;;LION;49;14500;7200;224;48;94;100;8400;;4151;4151;1;13016;26.04;27.64;31,9;BCS1388054;1;16
009518;16.12.2019;07:43:03;Charge to 10% ;03.12.2018;FEY;;LION;49;14500;7200;224;48;94;100;8400;;4145;4145;1;13016;25.64;27.04;31,9;BCS1388054;1;16
009518;16.12.2019;14:36:13;Stop          ;03.12.2018;FEY;;LION;49;14500;7200;192;49;10;10;8400;3000;3364;3364;1;13016;31.84;31.84;32,4;BCS1388054;1;16
009518;16.12.2019;14:44:00;Charge to 90% ;03.12.2018;FEY;;LION;49;14500;7200;192;49;10;10;8400;3000;3367;3367;1;13018;31.24;30.24;31,7;BCS1388054;1;16
009518;16.12.2019;20:50:03;Stop          ;03.12.2018;FEY;;LION;49;14500;7200;192;49;85;90;8400;3000;4066;4067;1;13017;30.84;31.54;31,7;BCS1388054;1;16
009518;17.12.2019;08:37:37;Fastcharge    ;03.12.2018;FEY;;LION;49;14500;7200;192;49;86;90;8400;3000;4050;4050;1;13017;25.74;27.44;31,6;BCS1388054;1;16
009518;17.12.2019;10:31:11;Stop          ;03.12.2018;FEY;;LION;49;14500;7200;224;49;96;100;8400;;4160;4161;1;13016;27.14;28.44;31,4;BCS1388054;1;16
009518;17.12.2019;13:38:19;Charge to 10% ;03.12.2018;FEY;;LION;49;14500;7200;224;49;96;100;8400;;4149;4149;1;13016;26.04;27.44;30,8;BCS1388054;1;16
009518;17.12.2019;20:33:50;Stop          ;03.12.2018;FEY;;LION;49;14500;7200;192;50;10;10;8400;3000;3360;3360;1;13017;33.04;33.14;34,2;BCS1388054;1;16
009518;18.12.2019;08:31:14;Fastcharge    ;03.12.2018;FEY;;LION;49;14500;7200;192;50;10;10;8400;3000;3372;3372;1;13015;25.84;27.54;31,6;BCS1388054;1;16
009518;18.12.2019;14:28:33;Stop          ;03.12.2018;FEY;;LION;49;14500;7200;224;50;96;100;8400;;4162;4162;1;13016;29.14;29.54;31,9;BCS1388054;1;16
009518;19.12.2019;08:23:45;Charge to 60% ;03.12.2018;FEY;;LION;49;14500;7200;224;50;97;100;8400;;4148;4148;1;13016;25.74;27.44;31,5;BCS1388054;1;16
009518;19.12.2019;11:29:32;Stop          ;03.12.2018;FEY;;LION;49;14500;7200;192;51;58;60;8400;3000;3673;3723;1;13016;32.74;37.04;34,9;BCS1388054;1;16
009518;19.12.2019;12:16:33;Cycle         ;03.12.2018;FEY;;LION;49;14500;7200;192;51;58;60;8400;3000;3775;3775;1;13015;29.44;29.44;32,7;BCS1388054;1;16
009518;20.12.2019;17:26:19;Stop          ;03.12.2018;FEY;;LION;49;14500;7200;224;52;94;100;8400;;4151;4151;1;13017;26.04;27.34;31,2;BCS1388054;1;16
009518;06.01.2020;06:34:38;Charge to 60% ;03.12.2018;FEY;;LION;49;14500;7200;192;52;93;98;8400;;4122;4121;1;13016;25.84;27.44;31,9;BCS1388054;1;16
009518;06.01.2020;09:30:30;Stop          ;03.12.2018;FEY;;LION;49;14500;7200;192;53;57;60;8400;3000;3769;3769;1;13017;31.94;32.84;33,9;BCS1388054;1;16
009518;06.01.2020;09:50:27;Fastcharge    ;03.12.2018;FEY;;LION;49;14500;7200;192;53;57;60;8400;3000;3780;3780;1;13018;30.44;29.94;32,6;BCS1388054;1;16
009518;06.01.2020;13:07:36;Stop          ;03.12.2018;FEY;;LION;49;14500;7200;224;53;95;100;8400;;4163;4164;1;13018;28.74;29.54;31,7;BCS1388054;1;16