File: reader/as/009652.txt
Serialnumber ; Date ; Time ; Action ; Date of Manufacture ; Manufacturer ; Battery Name ; Device-Chemistry ; Specification-Info ; Design-Capacity [mAh] ; Design-Voltage [mV] ; Battery Status ; Cycle Count ; SOC [%] ; Relativ SOC[%] ; Desired Voltage [mV]; Desired Current [mA]; Cell Voltage 1 [mV] ; Cell Voltage 2 [mV] ; Max_Error [%] ; Busvoltage[mV] ; Battery Temperature [°C] ; Charger Temperature [°C] ; Batterysystem ; Case ; PLace
009652;07.12.2020;04:14:25;Cycle          ;04.12.2018;FEY;;LION;49;14500;7200;16576;2;99;99;;;4151;4153;1;13010;25.64;27.94;30,3;BCS1388054;3;3
009652;08.12.2020;16:19:50;Stop           ;04.12.2018;FEY;;LION;49;14500;7200;16576;2;99;99;;;4148;4150;1;13012;27.84;29.54;31,9;BCS1388054;3;3
009652;03.03.2021;08:17:40;Normalcharge  ;04.12.2018;FEY;;LION;49;14500;7200;192;2;72;72;8400;3000;3870;3871;1;13015;23.14;23.74;23,6;BCS1388054;6;3
009652;03.03.2021;11:56:52;Stop          ;04.12.2018;FEY;;LION;49;14500;7200;224;2;100;100;8400;;4158;4159;1;13009;28.04;29.84;31,7;BCS1388054;6;3
009652;06.04.2021;08:38:46;Normalcharge  ;04.12.2018;FEY;;LION;49;14500;7200;224;2;99;99;8400;;4133;4134;1;13007;20.84;26.24;28,1;BCS1388054;2;10
009652;06.04.2021;08:39:36;Stop          ;04.12.2018;FEY;;LION;49;14500;7200;224;2;99;99;8400;;4133;4134;1;13005;20.94;26.44;28,2;BCS1388054;2;10
009652;08.04.2021;07:57:57;Normalcharge  ;04.12.2018;FEY;;LION;49;14500;7200;224;2;99;99;8400;;4133;4134;1;13009;25.24;26.34;26,3;BCS1388054;2;10
009652;08.04.2021;07:59:45;Stop          ;04.12.2018;FEY;;LION;49;14500;7200;224;2;99;99;8400;;4133;4134;1;13005;25.24;27.04;26,8;BCS1388054;2;10
009652;08.04.2021;10:35:00;Normalcharge  ;04.12.2018;FEY;;LION;49;14500;7200;224;2;99;99;8400;;4133;4134;1;13008;25.64;26.84;28,1;BCS1388054;2;10
009652;08.04.2021;10:36:53;Stop          ;04.12.2018;FEY;;LION;49;14500;7200;224;2;99;99;8400;;4133;4134;1;13004;25.64;27.54;28,9;BCS1388054;2;10
009652;18.04.2021;08:33:36;Normalcharge  ;04.12.2018;FEY;;LION;49;14500;7200;224;2;98;99;8400;;4129;4130;1;13005;26.14;27.74;27,7;BCS1388054;2;10
009652;18.04.2021;08:33:44;Stop          ;04.12.2018;FEY;;LION;49;14500;7200;224;2;98;99;8400;;4129;4130;1;13004;26.14;27.74;27,8;BCS1388054;2;10
009652;04.08.2021;07:24:55;Normalcharge  ;04.12.2018;FEY;;LION;49;14500;7200;192;2;96;96;8400;;4096;4096;1;12998;30.44;32.04;31,5;BCS1388054;2;10
009652;04.08.2021;07:25:47;Stop          ;04.12.2018;FEY;;LION;49;14500;7200;192;2;96;96;8400;;4095;4096;1;12995;30.44;32.34;31,9;BCS1388054;2;10
009652;22.08.2021;11:08:08;Normalcharge  ;04.12.2018;FEY;;LION;49;14500;7200;192;2;93;94;8400;3000;4082;4083;1;13010;23.94;29.74;32,1;BCS1388054;5;2
009652;22.08.2021;11:08:41;Stop          ;04.12.2018;FEY;;LION;49;14500;7200;128;2;93;94;8400;3000;4106;4096;1;12848;23.94;31.24;32,5;BCS1388054;5;2