File: reader/as/009616.txt
Serialnumber ; Date ; Time ; Action ; Date of Manufacture ; Manufacturer ; Battery Name ; Device-Chemistry ; Specification-Info ; Design-Capacity [mAh] ; Design-Voltage [mV] ; Battery Status ; Cycle Count ; SOC [%] ; Relativ SOC[%] ; Desired Voltage [mV]; Desired Current [mA]; Cell Voltage 1 [mV] ; Cell Voltage 2 [mV] ; Max_Error [%] ; Busvoltage[mV] ; Battery Temperature [°C] ; Charger Temperature [°C] ; Batterysystem ; Case ; PLace
009616;10.12.2019;15:29:01;Charge to 30% ;04.12.2018;FEY;;LION;49;14500;7200;224;39;95;100;8400;;4132;4132;1;13012;22.34;25.04;27,1;BCS1388054;5;3
009616;10.12.2019;20:48:54;Stop          ;04.12.2018;FEY;;LION;49;14500;7200;192;40;29;30;8400;3000;3545;3545;1;13009;33.24;37.54;33,1;BCS1388054;5;3
009616;11.12.2019;08:48:53;Fastcharge    ;04.12.2018;FEY;;LION;49;14500;7200;192;40;29;30;8400;3000;3564;3564;1;13011;26.34;28.94;31,9;BCS1388054;5;3
009616;11.12.2019;13:40:11;Stop          ;04.12.2018;FEY;;LION;49;14500;7200;224;40;96;100;8400;;4164;4162;1;13009;30.04;31.44;32,4;BCS1388054;5;3
009616;11.12.2019;15:46:40;Charge to 10% ;04.12.2018;FEY;;LION;49;14500;7200;224;40;98;100;8400;;4155;4154;1;13011;27.14;29.24;31,4;BCS1388054;5;3
009616;11.12.2019;22:49:07;Stop          ;04.12.2018;FEY;;LION;49;14500;7200;192;41;10;10;8400;3000;3342;3341;1;13008;34.04;37.34;33,5;BCS1388054;5;3
009616;12.12.2019;08:45:10;Normalcharge  ;04.12.2018;FEY;;LION;49;14500;7200;192;41;9;10;8400;3000;3361;3361;1;13009;26.54;29.04;31,7;BCS1388054;5;3
009616;12.12.2019;16:41:20;Stop          ;04.12.2018;FEY;;LION;49;14500;7200;224;41;96;100;8400;;4162;4158;1;13009;29.24;30.64;31,6;BCS1388054;5;3
009616;13.12.2019;10:48:05;Charge to 10% ;04.12.2018;FEY;;LION;49;14500;7200;224;41;97;100;8400;;4149;4146;1;13010;26.54;29.24;32,0;BCS1388054;5;3
009616;13.12.2019;15:40:55;Stop          ;04.12.2018;FEY;;LION;49;14500;7200;192;42;36;38;8400;3000;3506;3554;1;13511;32.44;39.04;34,6;BCS1388054;5;3
009616;13.12.2019;15:41:42;Cycle         ;04.12.2018;FEY;;LION;49;14500;7200;192;42;36;38;8400;3000;3586;3584;1;13009;32.44;36.74;34,5;BCS1388054;5;3
009616;14.12.2019;22:39:35;Stop          ;04.12.2018;FEY;;LION;49;14500;7200;224;43;93;100;8400;;4154;4151;1;13009;26.64;28.94;31,7;BCS1388054;5;3
009616;16.12.2019;07:43:20;Charge to 10% ;04.12.2018;FEY;;LION;49;14500;7200;224;43;93;100;8400;;4147;4145;1;13010;26.34;28.24;31,9;BCS1388054;5;3
009616;16.12.2019;14:34:29;Stop          ;04.12.2018;FEY;;LION;49;14500;7200;192;44;10;10;8400;3000;3359;3356;1;13009;32.34;35.54;32,5;BCS1388054;5;3
009616;16.12.2019;14:44:17;Charge to 90% ;04.12.2018;FEY;;LION;49;14500;7200;192;44;10;10;8400;3000;3367;3365;1;13009;31.74;31.54;31,9;BCS1388054;5;3
009616;16.12.2019;20:48:55;Stop          ;04.12.2018;FEY;;LION;49;14500;7200;128;44;85;90;8400;3000;4073;4073;1;13010;31.84;36.14;31,9;BCS1388054;5;3
009616;17.12.2019;08:37:53;Fastcharge    ;04.12.2018;FEY;;LION;49;14500;7200;192;44;85;90;8400;3000;4047;4047;1;13010;26.44;28.84;31,6;BCS1388054;5;3
009616;17.12.2019;10:33:46;Stop          ;04.12.2018;FEY;;LION;49;14500;7200;224;44;96;100;8400;;4159;4159;1;13009;28.04;29.84;31,1;BCS1388054;5;3
009616;17.12.2019;10:33:46;Stop          ;04.12.2018;FEY;;LION;49;14500;7200;224;44;96;100;8400;;4159;4159;1;13009;28.04;29.84;31,1;BCS1388054;5;3
009616;17.12.2019;13:38:36;Charge to 10% ;04.12.2018;FEY;;LION;49;14500;7200;224;44;96;100;8400;;4151;4151;1;13009;26.74;28.84;30,8;BCS1388054;5;3
009616;17.12.2019;20:33:18;Stop          ;04.12.2018;FEY;;LION;49;14500;7200;192;45;10;10;8400;3000;3352;3351;1;13008;34.04;37.54;34,5;BCS1388054;5;3
009616;18.12.2019;08:31:30;Fastcharge    ;04.12.2018;FEY;;LION;49;14500;7200;192;45;10;10;8400;3000;3370;3370;1;13009;26.54;28.94;31,6;BCS1388054;5;3
009616;18.12.2019;14:29:27;Stop          ;04.12.2018;FEY;;LION;49;14500;7200;224;45;96;100;8400;;4165;4168;1;13009;30.04;31.34;31,7;BCS1388054;5;3
009616;19.12.2019;08:24:02;Charge to 60% ;04.12.2018;FEY;;LION;49;14500;7200;224;45;97;100;8400;;4151;4153;1;13009;26.44;28.94;31,5;BCS1388054;5;3
009616;19.12.2019;11:31:09;Stop          ;04.12.2018;FEY;;LION;49;14500;7200;192;46;58;60;8400;3000;3673;3725;1;13009;33.74;38.54;34,4;BCS1388054;5;3
009616;19.12.2019;12:16:49;Cycle         ;04.12.2018;FEY;;LION;49;14500;7200;192;46;58;60;8400;3000;3774;3775;1;13008;30.44;31.04;32,7;BCS1388054;5;3
009616;20.12.2019;17:27:50;Stop          ;04.12.2018;FEY;;LION;49;14500;7200;224;47;94;100;8400;;4153;4153;1;13010;26.84;28.84;31,0;BCS1388054;5;3
009616;06.01.2020;06:34:55;Charge to 60% ;04.12.2018;FEY;;LION;49;14500;7200;192;47;93;99;8400;;4122;4122;1;13010;26.74;29.14;31,9;BCS1388054;5;3
009616;06.01.2020;09:30:26;Stop          ;04.12.2018;FEY;;LION;49;14500;7200;192;48;57;60;8400;3000;3753;3752;1;13009;32.94;37.74;33,9;BCS1388054;5;3
009616;06.01.2020;09:50:42;Fastcharge    ;04.12.2018;FEY;;LION;49;14500;7200;192;48;57;60;8400;3000;3775;3775;1;13009;31.44;31.64;32,7;BCS1388054;5;3
009616;06.01.2020;13:09:56;Stop          ;04.12.2018;FEY;;LION;49;14500;7200;224;48;95;100;8400;;4164;4165;1;13011;29.44;30.94;31,4;BCS1388054;5;3