File: reader/as/009614.txt
Serialnumber ; Date ; Time ; Action ; Date of Manufacture ; Manufacturer ; Battery Name ; Device-Chemistry ; Specification-Info ; Design-Capacity [mAh] ; Design-Voltage [mV] ; Battery Status ; Cycle Count ; SOC [%] ; Relativ SOC[%] ; Desired Voltage [mV]; Desired Current [mA]; Cell Voltage 1 [mV] ; Cell Voltage 2 [mV] ; Max_Error [%] ; Busvoltage[mV] ; Battery Temperature [°C] ; Charger Temperature [°C] ; Batterysystem ; Case ; PLace
009614;10.12.2019;15:28:54;Charge to 30% ;03.12.2018;FEY;;LION;49;14500;7200;224;45;94;100;8400;;4130;4130;1;13002;22.64;24.24;27,1;BCS1388054;4;11
009614;10.12.2019;20:47:57;Stop          ;03.12.2018;FEY;;LION;49;14500;7200;192;46;29;30;8400;3000;3548;3548;1;13002;33.64;34.64;33,4;BCS1388054;4;11
009614;11.12.2019;08:48:41;Fastcharge    ;03.12.2018;FEY;;LION;49;14500;7200;192;46;29;30;8400;3000;3567;3567;1;13002;26.54;27.44;31,9;BCS1388054;4;11
009614;11.12.2019;13:42:44;Stop          ;03.12.2018;FEY;;LION;49;14500;7200;224;46;96;100;8400;;4162;4162;1;13002;30.04;28.84;31,9;BCS1388054;4;11
009614;11.12.2019;15:46:31;Charge to 10% ;03.12.2018;FEY;;LION;49;14500;7200;224;46;97;100;8400;;4154;4154;1;13001;27.24;27.34;31,4;BCS1388054;4;11
009614;11.12.2019;22:50:44;Stop          ;03.12.2018;FEY;;LION;49;14500;7200;192;47;10;10;8400;3000;3251;3303;1;13002;34.44;35.04;33,2;BCS1388054;4;11
009614;12.12.2019;08:45:03;Normalcharge  ;03.12.2018;FEY;;LION;49;14500;7200;192;47;9;9;8400;3000;3361;3361;1;13001;26.64;27.34;31,9;BCS1388054;4;11
009614;12.12.2019;16:41:48;Stop          ;03.12.2018;FEY;;LION;49;14500;7200;224;47;97;100;8400;;4163;4164;1;13002;29.24;28.74;31,5;BCS1388054;4;11
009614;13.12.2019;10:48:01;Charge to 10% ;03.12.2018;FEY;;LION;49;14500;7200;224;47;97;100;8400;;4149;4149;1;13002;26.64;27.64;32,0;BCS1388054;4;11
009614;13.12.2019;15:42:25;Stop          ;03.12.2018;FEY;;LION;49;14500;7200;192;48;36;37;8400;3000;3506;3557;1;13507;32.84;36.04;34,6;BCS1388054;4;11
009614;13.12.2019;15:42:27;Cycle         ;03.12.2018;FEY;;LION;49;14500;7200;192;48;36;37;8400;3000;3506;3557;1;13507;32.84;36.04;34,6;BCS1388054;4;11
009614;14.12.2019;22:44:28;Stop          ;03.12.2018;FEY;;LION;49;14500;7200;224;49;94;100;8400;;4152;4152;1;13001;26.74;27.64;32,0;BCS1388054;4;11
009614;16.12.2019;07:43:14;Charge to 10% ;03.12.2018;FEY;;LION;49;14500;7200;224;49;95;100;8400;;4146;4145;1;13001;26.44;26.94;31,9;BCS1388054;4;11
009614;16.12.2019;14:36:44;Stop          ;03.12.2018;FEY;;LION;49;14500;7200;192;50;10;10;8400;3000;3265;3317;1;13002;32.84;33.74;32,4;BCS1388054;4;11
009614;16.12.2019;14:44:13;Charge to 90% ;03.12.2018;FEY;;LION;49;14500;7200;192;50;10;10;8400;3000;3364;3364;1;13001;32.24;29.64;31,7;BCS1388054;4;11
009614;16.12.2019;20:50:27;Stop          ;03.12.2018;FEY;;LION;49;14500;7200;128;50;86;90;8400;3000;4073;4075;1;13002;31.84;32.84;31,6;BCS1388054;4;11
009614;17.12.2019;08:37:49;Fastcharge    ;03.12.2018;FEY;;LION;49;14500;7200;192;50;86;90;8400;3000;4048;4048;1;13003;26.54;27.34;31,6;BCS1388054;4;11
009614;17.12.2019;10:31:06;Stop          ;03.12.2018;FEY;;LION;49;14500;7200;224;50;96;100;8400;;4161;4162;1;13003;28.14;28.04;31,4;BCS1388054;4;11
009614;17.12.2019;13:38:32;Charge to 10% ;03.12.2018;FEY;;LION;49;14500;7200;224;50;96;100;8400;;4151;4151;1;13001;26.84;27.24;30,8;BCS1388054;4;11
009614;17.12.2019;20:34:29;Stop          ;03.12.2018;FEY;;LION;49;14500;7200;192;51;10;10;8400;3000;3354;3355;1;13002;34.44;34.04;34,1;BCS1388054;4;11
009614;18.12.2019;08:31:26;Fastcharge    ;03.12.2018;FEY;;LION;49;14500;7200;192;51;10;10;8400;3000;3371;3373;1;13001;26.64;27.14;31,6;BCS1388054;4;11
009614;18.12.2019;14:29:12;Stop          ;03.12.2018;FEY;;LION;49;14500;7200;224;51;96;100;8400;;4161;4163;1;13001;30.14;28.94;31,9;BCS1388054;4;11
009614;19.12.2019;08:23:58;Charge to 60% ;03.12.2018;FEY;;LION;49;14500;7200;224;51;97;100;8400;;4149;4150;1;13003;26.54;27.34;31,6;BCS1388054;4;11
009614;19.12.2019;11:30:18;Stop          ;03.12.2018;FEY;;LION;49;14500;7200;192;52;58;60;8400;3000;3764;3766;1;13001;34.14;33.84;34,6;BCS1388054;4;11
009614;19.12.2019;12:16:45;Cycle         ;03.12.2018;FEY;;LION;49;14500;7200;192;52;58;60;8400;3000;3782;3784;1;13002;30.64;29.64;32,7;BCS1388054;4;11
009614;20.12.2019;17:30:48;Stop          ;03.12.2018;FEY;;LION;49;14500;7200;224;53;95;100;8400;;4152;4152;1;13003;26.84;27.04;30,6;BCS1388054;4;11
009614;06.01.2020;06:34:50;Charge to 60% ;03.12.2018;FEY;;LION;49;14500;7200;192;53;94;98;8400;;4123;4122;1;13001;26.74;27.54;31,9;BCS1388054;4;11
009614;06.01.2020;09:30:33;Stop          ;03.12.2018;FEY;;LION;49;14500;7200;192;53;58;60;8400;3000;3679;3730;1;13003;33.34;35.04;33,7;BCS1388054;4;11
009614;06.01.2020;09:50:38;Fastcharge    ;03.12.2018;FEY;;LION;49;14500;7200;192;53;58;60;8400;3000;3779;3780;1;13003;31.84;30.54;32,7;BCS1388054;4;11
009614;06.01.2020;13:09:19;Stop          ;03.12.2018;FEY;;LION;49;14500;7200;224;53;96;100;8400;;4160;4160;1;13003;29.64;28.44;31,4;BCS1388054;4;11