File: reader/as/009733.txt
Serialnumber ; Date ; Time ; Action ; Date of Manufacture ; Manufacturer ; Battery Name ; Device-Chemistry ; Specification-Info ; Design-Capacity [mAh] ; Design-Voltage [mV] ; Battery Status ; Cycle Count ; SOC [%] ; Relativ SOC[%] ; Desired Voltage [mV]; Desired Current [mA]; Cell Voltage 1 [mV] ; Cell Voltage 2 [mV] ; Max_Error [%] ; Busvoltage[mV] ; Battery Temperature [°C] ; Charger Temperature [°C] ; Batterysystem ; Case ; PLace
009733;07.02.2021;08:47:07;Normalcharge  ;04.12.2018;FEY;;LION;49;14500;7200;192;4;79;80;8400;3000;3932;3933;1;13017;23.54;26.04;29,2;BCS1388054;5;5
009733;07.02.2021;11:50:11;Stop          ;04.12.2018;FEY;;LION;49;14500;7200;224;4;98;100;8400;;4154;4155;1;13017;25.74;27.34;30,0;BCS1388054;5;5
009733;03.03.2021;08:17:35;Normalcharge  ;04.12.2018;FEY;;LION;49;14500;7200;192;4;83;84;8400;3000;3973;3973;1;13009;23.24;23.74;23,6;BCS1388054;5;3
009733;03.03.2021;11:26:36;Stop          ;04.12.2018;FEY;;LION;49;14500;7200;224;4;99;100;8400;;4154;4155;1;13003;28.44;30.24;31,5;BCS1388054;5;3
009733;04.04.2021;11:50:22;Normalcharge  ;04.12.2018;FEY;;LION;49;14500;7200;192;5;58;59;8400;3000;3738;3742;1;13005;25.14;25.74;27,9;BCS1388054;4;17
009733;04.04.2021;11:51:36;Stop          ;04.12.2018;FEY;;LION;49;14500;7200;128;5;58;59;8400;3000;3831;3788;1;12696;25.14;28.84;28,6;BCS1388054;4;17
009733;05.04.2021;09:37:37;Charge to 60% ;04.12.2018;FEY;;LION;49;14500;7200;192;5;58;59;8400;3000;3742;3745;1;12995;25.14;25.64;26,0;BCS1388054;1;5
009733;05.04.2021;10:01:53;Stop          ;04.12.2018;FEY;;LION;49;14500;7200;192;5;58;60;8400;3000;3747;3751;1;12991;25.94;27.44;31,2;BCS1388054;1;5
009733;22.08.2021;11:08:18;Normalcharge  ;04.12.2018;FEY;;LION;49;14500;7200;192;5;54;55;8400;3000;3701;3702;1;13030;30.04;31.04;32,2;BCS1388054;7;5
009733;22.08.2021;11:08:50;Stop          ;04.12.2018;FEY;;LION;49;14500;7200;128;5;54;55;8400;3000;3733;3717;1;12848;30.04;32.14;32,6;BCS1388054;7;5
009733;25.08.2021;08:15:08;Charge to 60% ;04.12.2018;FEY;;LION;49;14500;7200;192;5;54;55;8400;3000;3700;3702;1;12988;30.54;33.04;33,4;BCS1388054;4;2
009733;25.08.2021;12:59:17;Stop          ;04.12.2018;FEY;;LION;49;14500;7200;192;5;58;60;8400;3000;3749;3751;1;12987;32.84;35.64;36,6;BCS1388054;4;2