File: reader/as/009785.txt
Serialnumber ; Date ; Time ; Action ; Date of Manufacture ; Manufacturer ; Battery Name ; Device-Chemistry ; Specification-Info ; Design-Capacity [mAh] ; Design-Voltage [mV] ; Battery Status ; Cycle Count ; SOC [%] ; Relativ SOC[%] ; Desired Voltage [mV]; Desired Current [mA]; Cell Voltage 1 [mV] ; Cell Voltage 2 [mV] ; Max_Error [%] ; Busvoltage[mV] ; Battery Temperature [°C] ; Charger Temperature [°C] ; Batterysystem ; Case ; PLace
009785;01.12.2020;07:38:36;Cycle         ;04.12.2018;FEY;;LION;49;14500;7200;192;3;18;19;8400;3000;3447;3449;1;13008;25.54;25.74;28,8;BCS1388054;2;1
009785;02.12.2020;16:21:01;Stop          ;04.12.2018;FEY;;LION;49;14500;7200;224;4;98;100;8400;;4157;4156;1;13002;26.64;28.34;29,3;BCS1388054;2;1
009785;03.03.2021;08:17:08;Normalcharge  ;04.12.2018;FEY;;LION;49;14500;7200;192;4;95;97;8400;;4105;4105;1;13008;23.14;22.54;23,5;BCS1388054;1;10
009785;04.03.2021;07:53:51;Stop          ;04.12.2018;FEY;;LION;49;14500;7200;192;4;94;97;8400;;4104;4104;1;13000;26.04;26.64;31,6;BCS1388054;1;10
009785;04.04.2021;11:50:22;Normalcharge  ;04.12.2018;FEY;;LION;49;14500;7200;192;4;94;97;8400;;4094;4094;1;13009;25.14;25.84;27,9;BCS1388054;4;13
009785;04.04.2021;11:51:36;Stop          ;04.12.2018;FEY;;LION;49;14500;7200;192;4;94;97;8400;;4094;4094;1;12743;25.14;26.14;28,6;BCS1388054;4;13
009785;22.08.2021;11:37:30;Normalcharge  ;04.12.2018;FEY;;LION;49;14500;7200;192;4;91;93;8400;3000;4047;4048;1;12998;21.54;28.04;31,9;BCS1388054;3;7
009785;22.08.2021;11:38:19;Stop           ;04.12.2018;FEY;;LION;49;14500;7200;128;4;91;93;8400;3000;4116;4087;1;12570;21.74;29.94;32,1;BCS1388054;3;7