File: reader/as/009804.txt
Serialnumber ; Date ; Time ; Action ; Date of Manufacture ; Manufacturer ; Battery Name ; Device-Chemistry ; Specification-Info ; Design-Capacity [mAh] ; Design-Voltage [mV] ; Battery Status ; Cycle Count ; SOC [%] ; Relativ SOC[%] ; Desired Voltage [mV]; Desired Current [mA]; Cell Voltage 1 [mV] ; Cell Voltage 2 [mV] ; Max_Error [%] ; Busvoltage[mV] ; Battery Temperature [°C] ; Charger Temperature [°C] ; Batterysystem ; Case ; PLace
009804;07.02.2021;08:46:48;Normalcharge  ;03.12.2018;FEY;;LION;49;14500;7200;192;1;97;97;8400;;4131;4131;1;13014;23.34;25.04;29,2;BCS1388054;2;6
009804;07.02.2021;11:52:12;Stop          ;03.12.2018;FEY;;LION;49;14500;7200;192;1;97;97;8400;;4131;4131;1;13014;25.34;25.94;29,7;BCS1388054;2;6
009804;03.03.2021;08:17:40;Normalcharge  ;03.12.2018;FEY;;LION;49;14500;7200;192;1;72;73;8400;3000;3884;3885;1;13002;22.74;24.64;23,6;BCS1388054;6;2
009804;03.03.2021;11:56:52;Stop          ;03.12.2018;FEY;;LION;49;14500;7200;224;1;99;100;8400;;4156;4157;1;12998;27.74;31.34;31,7;BCS1388054;6;2
009804;06.04.2021;08:38:46;Normalcharge  ;03.12.2018;FEY;;LION;49;14500;7200;224;1;98;99;8400;;4133;4133;1;13002;20.34;25.04;28,1;BCS1388054;2;14
009804;06.04.2021;08:39:36;Stop          ;03.12.2018;FEY;;LION;49;14500;7200;224;1;98;99;8400;;4133;4133;1;13001;20.44;25.34;28,2;BCS1388054;2;14
009804;08.04.2021;07:57:57;Normalcharge  ;03.12.2018;FEY;;LION;49;14500;7200;224;1;98;99;8400;;4132;4133;1;13009;24.94;25.14;26,3;BCS1388054;2;14
009804;08.04.2021;07:59:45;Stop          ;03.12.2018;FEY;;LION;49;14500;7200;224;1;98;99;8400;;4133;4133;1;13006;24.94;25.94;26,8;BCS1388054;2;14
009804;08.04.2021;10:35:00;Normalcharge  ;03.12.2018;FEY;;LION;49;14500;7200;224;1;98;99;8400;;4133;4133;1;13009;25.34;25.64;28,1;BCS1388054;2;14
009804;08.04.2021;10:36:53;Stop          ;03.12.2018;FEY;;LION;49;14500;7200;224;1;98;99;8400;;4133;4133;1;13006;25.34;26.44;28,9;BCS1388054;2;14
009804;18.04.2021;08:33:36;Normalcharge  ;03.12.2018;FEY;;LION;49;14500;7200;224;1;98;99;8400;;4129;4129;1;13005;25.84;26.54;27,7;BCS1388054;2;14
009804;18.04.2021;08:33:44;Stop          ;03.12.2018;FEY;;LION;49;14500;7200;224;1;98;99;8400;;4129;4129;1;13006;25.84;26.54;27,8;BCS1388054;2;14
009804;04.08.2021;07:24:55;Normalcharge  ;03.12.2018;FEY;;LION;49;14500;7200;192;1;95;96;8400;;4096;4096;1;12992;30.14;30.94;31,5;BCS1388054;2;14
009804;04.08.2021;07:25:47;Stop          ;03.12.2018;FEY;;LION;49;14500;7200;192;1;95;96;8400;;4096;4097;1;12991;30.14;31.24;31,9;BCS1388054;2;14
009804;22.08.2021;11:37:17;Normalcharge  ;03.12.2018;FEY;;LION;49;14500;7200;192;1;87;89;8400;3000;4028;4028;1;12990;22.54;29.34;31,9;BCS1388054;6;10
009804;22.08.2021;11:37:57;Stop          ;03.12.2018;FEY;;LION;49;14500;7200;128;1;87;89;8400;3000;4055;4043;1;12853;22.64;30.64;32,0;BCS1388054;6;10