File: reader/as/009812.txt
Serialnumber ; Date ; Time ; Action ; Date of Manufacture ; Manufacturer ; Battery Name ; Device-Chemistry ; Specification-Info ; Design-Capacity [mAh] ; Design-Voltage [mV] ; Battery Status ; Cycle Count ; SOC [%] ; Relativ SOC[%] ; Desired Voltage [mV]; Desired Current [mA]; Cell Voltage 1 [mV] ; Cell Voltage 2 [mV] ; Max_Error [%] ; Busvoltage[mV] ; Battery Temperature [°C] ; Charger Temperature [°C] ; Batterysystem ; Case ; PLace
009812;10.12.2019;15:28:40;Charge to 30% ;03.12.2018;FEY;;LION;49;14500;7200;224;50;92;100;8400;;4131;4131;1;13012;22.84;25.04;27,1;BCS1388054;2;4
009812;10.12.2019;20:48:37;Stop          ;03.12.2018;FEY;;LION;49;14500;7200;192;51;28;30;8400;3000;3561;3561;1;13010;33.24;33.14;33,2;BCS1388054;2;4
009812;11.12.2019;08:48:24;Fastcharge    ;03.12.2018;FEY;;LION;49;14500;7200;192;51;28;30;8400;3000;3569;3569;1;13010;26.24;28.24;31,9;BCS1388054;2;4
009812;11.12.2019;13:39:47;Stop          ;03.12.2018;FEY;;LION;49;14500;7200;224;51;94;100;8400;;4161;4161;1;13010;29.74;30.44;32,5;BCS1388054;2;4
009812;11.12.2019;15:46:18;Charge to 10% ;03.12.2018;FEY;;LION;49;14500;7200;224;51;95;100;8400;;4152;4153;1;13010;27.04;28.54;31,4;BCS1388054;2;4
009812;11.12.2019;22:49:04;Stop          ;03.12.2018;FEY;;LION;49;14500;7200;192;52;10;10;8400;3000;3355;3355;1;13009;33.94;33.74;33,6;BCS1388054;2;4
009812;12.12.2019;08:44:52;Normalcharge  ;03.12.2018;FEY;;LION;49;14500;7200;192;52;9;9;8400;3000;3365;3365;1;13009;26.44;28.44;31,9;BCS1388054;2;4
009812;12.12.2019;16:40:06;Stop          ;03.12.2018;FEY;;LION;49;14500;7200;224;52;95;100;8400;;4159;4158;1;13010;28.94;29.94;31,7;BCS1388054;2;4
009812;13.12.2019;10:47:50;Charge to 10% ;03.12.2018;FEY;;LION;49;14500;7200;224;52;95;100;8400;;4147;4147;1;13009;26.44;28.44;32,0;BCS1388054;2;4
009812;13.12.2019;15:42:08;Cycle         ;03.12.2018;FEY;;LION;49;14500;7200;192;53;34;36;8400;3000;3497;3548;1;13567;33.04;38.14;34,6;BCS1388054;2;4
009812;13.12.2019;15:42:08;Stop          ;03.12.2018;FEY;;LION;49;14500;7200;192;53;34;36;8400;3000;3497;3548;1;13567;33.04;38.14;34,6;BCS1388054;2;4
009812;14.12.2019;22:48:51;Stop          ;03.12.2018;FEY;;LION;49;14500;7200;224;54;92;99;8400;;4151;4150;1;13011;26.54;28.44;32,0;BCS1388054;2;4
009812;16.12.2019;07:43:06;Charge to 10% ;03.12.2018;FEY;;LION;49;14500;7200;224;54;93;100;8400;;4145;4144;1;13011;26.14;27.94;31,9;BCS1388054;2;4
009812;16.12.2019;14:37:54;Stop          ;03.12.2018;FEY;;LION;49;14500;7200;192;56;10;10;8400;3000;3368;3367;1;13011;32.54;32.04;32,4;BCS1388054;2;4
009812;16.12.2019;14:44:03;Charge to 90% ;03.12.2018;FEY;;LION;49;14500;7200;192;56;10;10;8400;3000;3369;3368;1;13011;32.04;31.34;31,9;BCS1388054;2;4
009812;16.12.2019;20:51:09;Stop          ;03.12.2018;FEY;;LION;49;14500;7200;192;56;84;90;8400;3000;4053;4054;1;13012;31.24;31.04;31,6;BCS1388054;2;4
009812;17.12.2019;08:37:40;Fastcharge    ;03.12.2018;FEY;;LION;49;14500;7200;192;56;84;90;8400;3000;4046;4046;1;13012;26.24;28.24;31,6;BCS1388054;2;4
009812;17.12.2019;10:30:36;Stop          ;03.12.2018;FEY;;LION;49;14500;7200;224;56;94;100;8400;;4162;4163;1;13011;27.84;29.44;31,5;BCS1388054;2;4
009812;17.12.2019;13:38:22;Charge to 10% ;03.12.2018;FEY;;LION;49;14500;7200;224;56;94;100;8400;;4149;4150;1;13011;26.54;28.24;30,8;BCS1388054;2;4
009812;17.12.2019;20:36:00;Stop          ;03.12.2018;FEY;;LION;49;14500;7200;192;57;10;10;8400;3000;3368;3368;1;13010;33.74;33.34;33,6;BCS1388054;2;4
009812;18.12.2019;08:31:17;Fastcharge    ;03.12.2018;FEY;;LION;49;14500;7200;192;57;10;11;8400;3000;3376;3377;1;13011;26.44;28.24;31,6;BCS1388054;2;4
009812;18.12.2019;14:28:27;Stop          ;03.12.2018;FEY;;LION;49;14500;7200;224;57;94;100;8400;;4159;4161;1;13011;29.84;30.34;32,0;BCS1388054;2;4
009812;19.12.2019;08:23:50;Charge to 60% ;03.12.2018;FEY;;LION;49;14500;7200;224;57;95;100;8400;;4148;4149;1;13011;26.24;28.14;31,5;BCS1388054;2;4
009812;19.12.2019;11:32:11;Stop          ;03.12.2018;FEY;;LION;49;14500;7200;192;57;57;60;8400;3000;3767;3769;1;13009;33.74;33.84;34,0;BCS1388054;2;4
009812;19.12.2019;12:16:37;Cycle         ;03.12.2018;FEY;;LION;49;14500;7200;192;57;57;60;8400;3000;3774;3778;1;13010;30.44;30.44;32,7;BCS1388054;2;4
009812;20.12.2019;17:35:47;Stop          ;03.12.2018;FEY;;LION;49;14500;7200;224;58;93;99;8400;;4151;4150;1;13012;26.54;28.24;31,1;BCS1388054;2;4
009812;06.01.2020;06:34:42;Charge to 60% ;03.12.2018;FEY;;LION;49;14500;7200;192;59;91;98;8400;;4122;4122;1;13012;26.34;28.14;31,9;BCS1388054;2;4
009812;06.01.2020;09:32:11;Stop          ;03.12.2018;FEY;;LION;49;14500;7200;192;59;56;60;8400;3000;3773;3773;1;13011;32.94;33.04;33,2;BCS1388054;2;4
009812;06.01.2020;09:50:30;Fastcharge    ;03.12.2018;FEY;;LION;49;14500;7200;192;59;56;60;8400;3000;3778;3779;1;13013;31.64;31.14;32,7;BCS1388054;2;4
009812;06.01.2020;13:08:34;Stop          ;03.12.2018;FEY;;LION;49;14500;7200;224;59;93;100;8400;;4158;4159;1;13012;29.24;29.74;31,6;BCS1388054;2;4