File: reader/as/009833.txt
Serialnumber ; Date ; Time ; Action ; Date of Manufacture ; Manufacturer ; Battery Name ; Device-Chemistry ; Specification-Info ; Design-Capacity [mAh] ; Design-Voltage [mV] ; Battery Status ; Cycle Count ; SOC [%] ; Relativ SOC[%] ; Desired Voltage [mV]; Desired Current [mA]; Cell Voltage 1 [mV] ; Cell Voltage 2 [mV] ; Max_Error [%] ; Busvoltage[mV] ; Battery Temperature [°C] ; Charger Temperature [°C] ; Batterysystem ; Case ; PLace
009833;07.12.2020;04:14:25;Cycle          ;03.12.2018;FEY;;LION;49;14500;7200;224;1;97;99;8400;;4129;4129;1;13001;25.44;28.24;30,3;BCS1388054;3;1
009833;08.12.2020;16:19:50;Stop           ;03.12.2018;FEY;;LION;49;14500;7200;224;2;96;99;8400;;4153;4152;1;13000;27.64;29.84;31,9;BCS1388054;3;1
009833;03.03.2021;08:17:17;Normalcharge  ;03.12.2018;FEY;;LION;49;14500;7200;192;2;92;95;8400;3000;4090;4089;1;12998;22.94;23.44;23,5;BCS1388054;2;15
009833;04.03.2021;07:53:46;Stop          ;03.12.2018;FEY;;LION;49;14500;7200;224;2;97;100;8400;;4147;4147;1;12991;26.24;28.34;31,6;BCS1388054;2;15
009833;04.04.2021;11:50:22;Normalcharge  ;03.12.2018;FEY;;LION;49;14500;7200;224;2;96;99;8400;;4133;4133;1;13003;24.94;25.94;27,9;BCS1388054;4;15
009833;04.04.2021;11:51:36;Stop          ;03.12.2018;FEY;;LION;49;14500;7200;224;2;96;99;8400;;4133;4133;1;12724;24.94;26.34;28,6;BCS1388054;4;15
009833;22.08.2021;11:37:25;Normalcharge  ;03.12.2018;FEY;;LION;49;14500;7200;192;3;28;31;8400;3000;3565;3565;1;13009;20.84;28.74;31,9;BCS1388054;4;10
009833;22.08.2021;11:38:13;Stop          ;03.12.2018;FEY;;LION;49;14500;7200;128;3;28;31;8400;3000;3641;3598;1;12630;20.94;30.94;32,1;BCS1388054;4;10
009833;25.08.2021;08:15:08;Charge to 60% ;03.12.2018;FEY;;LION;49;14500;7200;192;3;28;31;8400;3000;3568;3567;1;13006;30.24;32.34;33,4;BCS1388054;4;10
009833;25.08.2021;12:59:17;Stop          ;03.12.2018;FEY;;LION;49;14500;7200;192;3;55;60;8400;3000;3745;3746;1;13005;32.54;34.54;36,6;BCS1388054;4;10