File: reader/as/009852.txt
Serialnumber ; Date ; Time ; Action ; Date of Manufacture ; Manufacturer ; Battery Name ; Device-Chemistry ; Specification-Info ; Design-Capacity [mAh] ; Design-Voltage [mV] ; Battery Status ; Cycle Count ; SOC [%] ; Relativ SOC[%] ; Desired Voltage [mV]; Desired Current [mA]; Cell Voltage 1 [mV] ; Cell Voltage 2 [mV] ; Max_Error [%] ; Busvoltage[mV] ; Battery Temperature [°C] ; Charger Temperature [°C] ; Batterysystem ; Case ; PLace
009852;29.11.2020;04:25:09;Cycle         ;03.12.2018;FEY;;LION;49;14500;7200;192;2;79;81;8400;3000;3942;3942;1;12997;25.14;25.24;25,6;BCS1388054;1;4
009852;12.01.2021;04:17:28;Ladung auf 90% ;03.12.2018;FEY;;LION;49;14500;7200;224;3;95;99;8400;;4128;4128;1;13006;22.94;23.24;23,6;BCS1388054;3;7
009852;12.01.2021;04:57:30;Stop           ;03.12.2018;FEY;;LION;49;14500;7200;192;4;84;90;8400;3000;4044;4044;1;13001;27.04;30.64;31,5;BCS1388054;3;7
009852;12.01.2021;05:21:45;Cycle          ;03.12.2018;FEY;;LION;49;14500;7200;192;4;84;90;8400;3000;4052;4052;1;13003;27.14;28.44;30,4;BCS1388054;3;7
009852;13.01.2021;08:23:25;Stop           ;03.12.2018;FEY;;LION;49;14500;7200;224;5;95;100;8400;;4156;4157;1;13002;27.14;28.24;31,4;BCS1388054;3;7
009852;21.02.2021;13:43:48;Normalcharge  ;03.12.2018;FEY;;LION;49;14500;7200;192;5;63;65;8400;3000;3804;3804;1;13009;22.84;22.64;27,7;BCS1388054;3;4
009852;21.02.2021;20:44:52;Stop           ;03.12.2018;FEY;;LION;49;14500;7200;224;5;97;100;8400;;4154;4156;1;13004;26.54;27.04;31,2;BCS1388054;3;4
009852;06.04.2021;08:39:16;Normalcharge  ;03.12.2018;FEY;;LION;49;14500;7200;224;5;95;99;8400;;4129;4130;1;12994;21.24;25.74;28,1;BCS1388054;6;18
009852;06.04.2021;08:40:04;Stop          ;03.12.2018;FEY;;LION;49;14500;7200;224;5;95;99;8400;;4129;4130;1;12974;21.34;25.84;28,5;BCS1388054;6;18
009852;08.04.2021;07:58:44;Normalcharge  ;03.12.2018;FEY;;LION;49;14500;7200;224;5;95;99;8400;;4129;4130;1;12999;25.04;21.24;26,4;BCS1388054;6;18
009852;08.04.2021;07:59:23;Stop          ;03.12.2018;FEY;;LION;49;14500;7200;224;5;95;99;8400;;4128;4130;1;12997;25.04;25.84;26,7;BCS1388054;6;18
009852;08.04.2021;10:36:16;Normalcharge  ;03.12.2018;FEY;;LION;49;14500;7200;224;5;95;99;8400;;4128;4129;1;12996;25.24;26.24;28,6;BCS1388054;6;18
009852;08.04.2021;10:37:11;Stop          ;03.12.2018;FEY;;LION;49;14500;7200;224;5;95;99;8400;;4128;4130;1;12976;25.24;26.54;29,2;BCS1388054;6;18
009852;18.04.2021;08:34:33;Normalcharge  ;03.12.2018;FEY;;LION;49;14500;7200;192;5;95;98;8400;;4125;4126;1;12994;25.94;27.14;28,2;BCS1388054;6;18
009852;18.04.2021;08:34:41;Stop          ;03.12.2018;FEY;;LION;49;14500;7200;192;5;95;98;8400;;4125;4126;1;12994;26.04;27.24;28,2;BCS1388054;6;18
009852;04.08.2021;07:24:35;Normalcharge  ;03.12.2018;FEY;;LION;49;14500;7200;192;5;93;96;8400;;4093;4094;1;12991;29.94;30.94;31,5;BCS1388054;6;18
009852;04.08.2021;07:25:17;Stop          ;03.12.2018;FEY;;LION;49;14500;7200;192;5;93;96;8400;;4093;4094;1;12976;29.94;31.24;31,6;BCS1388054;6;18
009852;22.08.2021;11:08:08;Normalcharge  ;03.12.2018;FEY;;LION;49;14500;7200;192;5;93;96;8400;;4088;4089;1;13007;30.14;29.74;32,1;BCS1388054;5;4
009852;22.08.2021;11:08:41;Stop          ;03.12.2018;FEY;;LION;49;14500;7200;192;5;93;96;8400;;4088;4089;1;12843;30.04;30.04;32,5;BCS1388054;5;4