File: V1/reader/Batterieverzeichnis/001036.txt
Serialnumber ; Date ; Time ; Action ; Date of Manufacture ; Manufacturer ; Battery Name ; Device-Chemistry ; Specification-Info ; Design-Capacity [mAh] ; Design-Voltage [mV] ; Battery Status ; Cycle Count ; SOC [%] ; Relativ SOC[%] ; Desired Voltage [mV]; Desired Current [mA]; Cell Voltage 1 [mV] ; Cell Voltage 2 [mV] ; Max_Error [%] ; Busvoltage[mV] ; Battery Temperature [°C] ; Charger Temperature [°C] ; Batterysystem ; Case ; PLace
001036;10.12.2019;15:29:15;Charge to 30% ;28.11.2017;FEY;;LION;49;14500;7200;224;22;91;99;8400;;4122;4122;1;13030;22.04;24.44;27,1;BCS1388054;7;3
001036;10.12.2019;20:46:56;Stop          ;28.11.2017;FEY;;LION;49;14500;7200;192;23;28;30;8400;3000;3558;3558;1;13026;31.44;31.74;33,5;BCS1388054;7;3
001036;11.12.2019;08:49:12;Fastcharge    ;28.11.2017;FEY;;LION;49;14500;7200;192;23;28;30;8400;3000;3564;3564;1;13028;25.44;27.54;31,9;BCS1388054;7;3
001036;11.12.2019;13:38:42;Stop          ;28.11.2017;FEY;;LION;49;14500;7200;224;23;93;100;8400;;4161;4161;1;13029;28.64;29.44;32,7;BCS1388054;7;3
001036;11.12.2019;15:46:56;Charge to 10% ;28.11.2017;FEY;;LION;49;14500;7200;224;23;94;100;8400;;4154;4154;1;13029;26.24;27.84;31,2;BCS1388054;7;3
001036;11.12.2019;22:51:50;Stop          ;28.11.2017;FEY;;LION;49;14500;7200;192;24;10;10;8400;3000;3356;3357;1;13027;31.84;31.54;33,0;BCS1388054;7;3
001036;12.12.2019;08:45:27;Normalcharge  ;28.11.2017;FEY;;LION;49;14500;7200;192;24;9;9;8400;3000;3363;3364;1;13027;25.64;27.74;31,7;BCS1388054;7;3
001036;12.12.2019;16:41:08;Stop          ;28.11.2017;FEY;;LION;49;14500;7200;224;24;93;100;8400;;4158;4158;1;13028;27.94;28.84;31,6;BCS1388054;7;3
001036;13.12.2019;10:48:13;Charge to 10% ;28.11.2017;FEY;;LION;49;14500;7200;224;24;94;100;8400;;4149;4149;1;13028;25.64;27.84;32,0;BCS1388054;7;3
001036;13.12.2019;13:48:48;Stop          ;28.11.2017;FEY;;LION;49;14500;7200;192;25;56;60;8400;3000;3669;3721;1;13521;32.94;38.74;36,8;BCS1388054;7;3
001036;16.12.2019;07:43:34;Charge to 10% ;28.11.2017;FEY;;LION;49;14500;7200;192;25;58;62;8400;3000;3774;3772;1;13034;22.14;27.24;31,7;BCS1388054;7;8
001036;16.12.2019;11:52:34;Stop          ;28.11.2017;FEY;;LION;49;14500;7200;192;25;10;10;8400;3000;3356;3356;1;13033;31.84;32.84;34,7;BCS1388054;7;8
001036;16.12.2019;14:44:25;Charge to 90% ;28.11.2017;FEY;;LION;49;14500;7200;192;25;9;10;8400;3000;3360;3360;1;13034;28.44;30.04;31,7;BCS1388054;7;8
001036;16.12.2019;20:53:58;Stop          ;28.11.2017;FEY;;LION;49;14500;7200;192;25;82;90;8400;3000;4029;4031;1;13034;30.64;31.24;32,1;BCS1388054;7;8
001036;17.12.2019;08:38:01;Fastcharge    ;28.11.2017;FEY;;LION;49;14500;7200;192;25;83;90;8400;3000;4024;4025;1;13034;25.74;28.44;31,6;BCS1388054;7;8
001036;17.12.2019;10:36:25;Stop          ;28.11.2017;FEY;;LION;49;14500;7200;224;25;92;100;8400;;4161;4164;1;13034;27.54;29.54;31,5;BCS1388054;7;8
001036;17.12.2019;13:38:44;Charge to 10% ;28.11.2017;FEY;;LION;49;14500;7200;224;25;92;100;8400;;4151;4153;1;13034;26.04;28.54;30,8;BCS1388054;7;8
001036;17.12.2019;20:42:03;Stop          ;28.11.2017;FEY;;LION;49;14500;7200;192;26;10;10;8400;3000;3356;3357;1;13034;32.74;32.44;32,6;BCS1388054;7;8
001036;18.12.2019;08:31:43;Fastcharge    ;28.11.2017;FEY;;LION;49;14500;7200;192;26;8;9;8400;3000;3362;3364;1;13035;25.84;28.54;31,6;BCS1388054;7;8
001036;18.12.2019;14:30:48;Stop          ;28.11.2017;FEY;;LION;49;14500;7200;224;26;91;100;8400;;4160;4164;1;13034;29.54;30.24;31,6;BCS1388054;7;8
001036;19.12.2019;08:24:17;Charge to 60% ;28.11.2017;FEY;;LION;49;14500;7200;224;26;93;100;8400;;4150;4153;1;13034;25.74;28.44;31,6;BCS1388054;7;8
001036;19.12.2019;11:28:26;Stop          ;28.11.2017;FEY;;LION;49;14500;7200;192;27;56;60;8400;3000;3769;3771;1;13032;32.84;34.44;35,1;BCS1388054;7;8
001036;19.12.2019;12:16:57;Cycle         ;28.11.2017;FEY;;LION;49;14500;7200;192;27;56;60;8400;3000;3778;3781;1;13033;29.74;30.34;32,7;BCS1388054;7;8
001036;20.12.2019;17:22:28;Stop          ;28.11.2017;FEY;;LION;49;14500;7200;224;28;92;100;8400;;4153;4153;1;13035;26.24;28.64;31,9;BCS1388054;7;8
001036;06.01.2020;06:35:02;Charge to 60% ;28.11.2017;FEY;;LION;49;14500;7200;192;28;90;98;8400;;4124;4124;1;13035;25.94;28.54;31,9;BCS1388054;7;8
001036;06.01.2020;09:29:52;Stop          ;28.11.2017;FEY;;LION;49;14500;7200;192;29;56;60;8400;3000;3768;3768;1;13033;32.04;33.44;34,0;BCS1388054;7;8
001036;06.01.2020;09:50:50;Fastcharge    ;28.11.2017;FEY;;LION;49;14500;7200;192;29;56;60;8400;3000;3776;3775;1;13035;30.64;30.94;32,7;BCS1388054;7;8
001036;06.01.2020;13:05:11;Stop          ;28.11.2017;FEY;;LION;49;14500;7200;224;29;93;100;8400;;4159;4159;1;13035;29.14;30.24;32,4;BCS1388054;7;8