File: V1/reader/Batterieverzeichnis/009565.txt
Serialnumber ; Date ; Time ; Action ; Date of Manufacture ; Manufacturer ; Battery Name ; Device-Chemistry ; Specification-Info ; Design-Capacity [mAh] ; Design-Voltage [mV] ; Battery Status ; Cycle Count ; SOC [%] ; Relativ SOC[%] ; Desired Voltage [mV]; Desired Current [mA]; Cell Voltage 1 [mV] ; Cell Voltage 2 [mV] ; Max_Error [%] ; Busvoltage[mV] ; Battery Temperature [°C] ; Charger Temperature [°C] ; Batterysystem ; Case ; PLace
009565;10.12.2019;15:28:33;Charge to 30% ;03.12.2018;FEY;;LION;49;14500;7200;192;48;92;98;8400;;4108;4108;1;13013;23.14;25.44;27,1;BCS1388054;1;6
009565;10.12.2019;20:42:16;Stop          ;03.12.2018;FEY;;LION;49;14500;7200;192;49;29;30;8400;3000;3557;3556;1;13011;31.54;31.54;34,1;BCS1388054;1;6
009565;11.12.2019;08:48:18;Fastcharge    ;03.12.2018;FEY;;LION;49;14500;7200;192;49;29;30;8400;3000;3568;3568;1;13013;25.64;27.74;31,9;BCS1388054;1;6
009565;11.12.2019;13:40:21;Stop          ;03.12.2018;FEY;;LION;49;14500;7200;224;49;95;100;8400;;4163;4163;1;13012;28.04;28.64;32,4;BCS1388054;1;6
009565;11.12.2019;15:45:57;Charge to 30% ;03.12.2018;FEY;;LION;49;14500;7200;224;49;96;100;8400;;4152;4152;1;13013;26.24;27.54;31,5;BCS1388054;1;6
009565;11.12.2019;15:46:00;Stop          ;03.12.2018;FEY;;LION;49;14500;7200;224;49;96;100;8400;;4152;4152;1;13012;26.24;27.54;31,5;BCS1388054;1;6
009565;11.12.2019;15:46:13;Charge to 10% ;03.12.2018;FEY;;LION;49;14500;7200;224;49;96;100;8400;;4152;4152;1;13012;26.24;27.54;31,5;BCS1388054;1;6
009565;11.12.2019;22:50:20;Stop          ;03.12.2018;FEY;;LION;49;14500;7200;192;50;10;10;8400;3000;3356;3356;1;13011;31.74;31.04;33,4;BCS1388054;1;6
009565;12.12.2019;08:44:40;Normalcharge  ;03.12.2018;FEY;;LION;49;14500;7200;192;50;9;9;8400;3000;3366;3366;1;13012;25.84;27.64;31,9;BCS1388054;1;6
009565;12.12.2019;16:39:22;Stop          ;03.12.2018;FEY;;LION;49;14500;7200;224;50;96;100;8400;;4162;4161;1;13012;27.64;28.44;31,7;BCS1388054;1;6
009565;13.12.2019;10:47:47;Charge to 10% ;03.12.2018;FEY;;LION;49;14500;7200;224;50;96;100;8400;;4148;4147;1;13011;25.84;28.04;32,0;BCS1388054;1;6
009565;13.12.2019;15:41:58;Stop          ;03.12.2018;FEY;;LION;49;14500;7200;192;51;35;36;8400;3000;3501;3551;1;13646;30.84;33.84;34,6;BCS1388054;1;6
009565;13.12.2019;15:42:01;Cycle         ;03.12.2018;FEY;;LION;49;14500;7200;192;51;35;36;8400;3000;3501;3551;1;13646;30.84;33.84;34,6;BCS1388054;1;6
009565;14.12.2019;22:41:25;Stop          ;03.12.2018;FEY;;LION;49;14500;7200;224;52;93;99;8400;;4151;4151;1;13014;25.74;27.74;31,9;BCS1388054;1;6
009565;16.12.2019;07:43:03;Charge to 10% ;03.12.2018;FEY;;LION;49;14500;7200;224;52;94;100;8400;;4145;4145;1;13012;25.54;27.54;31,9;BCS1388054;1;6
009565;16.12.2019;14:36:13;Stop          ;03.12.2018;FEY;;LION;49;14500;7200;192;53;10;10;8400;3000;3364;3364;1;13012;30.54;30.24;32,4;BCS1388054;1;6
009565;16.12.2019;14:44:00;Charge to 90% ;03.12.2018;FEY;;LION;49;14500;7200;192;53;10;10;8400;3000;3367;3367;1;13013;30.04;29.54;31,7;BCS1388054;1;6
009565;16.12.2019;20:50:03;Stop          ;03.12.2018;FEY;;LION;49;14500;7200;192;53;85;90;8400;3000;4057;4058;1;13013;29.64;29.24;31,7;BCS1388054;1;6
009565;17.12.2019;08:37:36;Fastcharge    ;03.12.2018;FEY;;LION;49;14500;7200;192;53;85;90;8400;3000;4046;4047;1;13012;25.64;27.64;31,6;BCS1388054;1;6
009565;17.12.2019;10:31:11;Stop          ;03.12.2018;FEY;;LION;49;14500;7200;224;53;95;100;8400;;4162;4162;1;13013;26.74;27.74;31,4;BCS1388054;1;6
009565;17.12.2019;13:38:19;Charge to 10% ;03.12.2018;FEY;;LION;49;14500;7200;224;53;95;100;8400;;4149;4149;1;13012;25.94;27.54;30,8;BCS1388054;1;6
009565;17.12.2019;20:33:50;Stop          ;03.12.2018;FEY;;LION;49;14500;7200;192;54;10;10;8400;3000;3360;3360;1;13011;31.94;31.24;34,2;BCS1388054;1;6
009565;18.12.2019;08:31:14;Fastcharge    ;03.12.2018;FEY;;LION;49;14500;7200;192;54;9;10;8400;3000;3372;3371;1;13014;25.84;27.34;31,6;BCS1388054;1;6
009565;18.12.2019;14:28:33;Stop          ;03.12.2018;FEY;;LION;49;14500;7200;224;54;94;100;8400;;4163;4164;1;13013;28.04;28.74;31,9;BCS1388054;1;6
009565;19.12.2019;08:23:45;Charge to 60% ;03.12.2018;FEY;;LION;49;14500;7200;224;54;96;100;8400;;4148;4148;1;13013;25.64;27.64;31,5;BCS1388054;1;6
009565;19.12.2019;11:29:32;Stop          ;03.12.2018;FEY;;LION;49;14500;7200;192;54;58;60;8400;3000;3764;3763;1;13012;32.04;31.94;34,9;BCS1388054;1;6
009565;19.12.2019;12:16:33;Cycle         ;03.12.2018;FEY;;LION;49;14500;7200;192;54;58;60;8400;3000;3779;3778;1;13013;28.54;29.04;32,7;BCS1388054;1;6
009565;20.12.2019;17:26:19;Stop          ;03.12.2018;FEY;;LION;49;14500;7200;224;56;94;100;8400;;4151;4151;1;13013;25.74;27.14;31,2;BCS1388054;1;6
009565;06.01.2020;06:34:38;Charge to 60% ;03.12.2018;FEY;;LION;49;14500;7200;192;56;93;99;8400;;4121;4121;1;13013;25.74;27.64;31,9;BCS1388054;1;6
009565;06.01.2020;09:30:29;Stop          ;03.12.2018;FEY;;LION;49;14500;7200;192;56;57;60;8400;3000;3776;3775;1;13013;31.14;30.94;33,9;BCS1388054;1;6
009565;06.01.2020;09:50:27;Fastcharge    ;03.12.2018;FEY;;LION;49;14500;7200;192;56;57;60;8400;3000;3785;3784;1;13012;29.64;29.54;32,6;BCS1388054;1;6
009565;06.01.2020;13:07:36;Stop          ;03.12.2018;FEY;;LION;49;14500;7200;224;56;94;100;8400;;4162;4162;1;13013;27.64;28.14;31,7;BCS1388054;1;6