File: V1/reader/Batterieverzeichnis/009669.txt
Serialnumber ; Date ; Time ; Action ; Date of Manufacture ; Manufacturer ; Battery Name ; Device-Chemistry ; Specification-Info ; Design-Capacity [mAh] ; Design-Voltage [mV] ; Battery Status ; Cycle Count ; SOC [%] ; Relativ SOC[%] ; Desired Voltage [mV]; Desired Current [mA]; Cell Voltage 1 [mV] ; Cell Voltage 2 [mV] ; Max_Error [%] ; Busvoltage[mV] ; Battery Temperature [°C] ; Charger Temperature [°C] ; Batterysystem ; Case ; PLace
009669;10.12.2019;15:29:01;Charge to 30% ;03.12.2018;FEY;;LION;49;14500;7200;224;48;94;100;8400;;4130;4129;1;13018;22.14;24.04;27,1;BCS1388054;5;17
009669;10.12.2019;20:48:54;Stop          ;03.12.2018;FEY;;LION;49;14500;7200;192;49;29;30;8400;3000;3559;3558;1;13016;33.24;34.24;33,1;BCS1388054;5;17
009669;11.12.2019;08:48:53;Fastcharge    ;03.12.2018;FEY;;LION;49;14500;7200;192;49;29;30;8400;3000;3569;3569;1;13015;26.04;27.74;31,9;BCS1388054;5;17
009669;11.12.2019;13:40:11;Stop          ;03.12.2018;FEY;;LION;49;14500;7200;224;49;95;100;8400;;4163;4163;1;13016;29.94;30.94;32,4;BCS1388054;5;17
009669;11.12.2019;15:46:40;Charge to 10% ;03.12.2018;FEY;;LION;49;14500;7200;224;49;97;100;8400;;4154;4153;1;13016;26.94;28.14;31,4;BCS1388054;5;17
009669;11.12.2019;22:49:07;Stop          ;03.12.2018;FEY;;LION;49;14500;7200;192;50;10;10;8400;3000;3255;3307;1;13015;34.24;39.04;33,5;BCS1388054;5;17
009669;12.12.2019;08:45:10;Normalcharge  ;03.12.2018;FEY;;LION;49;14500;7200;192;50;9;10;8400;3000;3364;3364;1;13015;26.24;27.94;31,7;BCS1388054;5;17
009669;12.12.2019;16:41:20;Stop          ;03.12.2018;FEY;;LION;49;14500;7200;224;50;97;100;8400;;4161;4162;1;13015;29.04;29.94;31,6;BCS1388054;5;17
009669;13.12.2019;10:48:05;Charge to 10% ;03.12.2018;FEY;;LION;49;14500;7200;224;50;97;100;8400;;4148;4148;1;13016;26.24;28.04;32,0;BCS1388054;5;17
009669;13.12.2019;15:40:55;Stop          ;03.12.2018;FEY;;LION;49;14500;7200;192;50;36;37;8400;3000;3508;3558;1;13535;32.74;39.44;34,6;BCS1388054;5;17
009669;13.12.2019;15:41:42;Cycle         ;03.12.2018;FEY;;LION;49;14500;7200;192;50;36;37;8400;3000;3588;3588;1;13015;32.74;37.04;34,5;BCS1388054;5;17
009669;14.12.2019;22:39:35;Stop          ;03.12.2018;FEY;;LION;49;14500;7200;224;52;93;99;8400;;4151;4149;1;13016;26.34;27.84;31,7;BCS1388054;5;17
009669;16.12.2019;07:43:20;Charge to 10% ;03.12.2018;FEY;;LION;49;14500;7200;224;52;94;100;8400;;4145;4144;1;13017;26.04;27.24;31,9;BCS1388054;5;17
009669;16.12.2019;14:34:29;Stop          ;03.12.2018;FEY;;LION;49;14500;7200;192;53;10;10;8400;3000;3270;3321;1;13016;32.64;37.54;32,5;BCS1388054;5;17
009669;16.12.2019;14:44:17;Charge to 90% ;03.12.2018;FEY;;LION;49;14500;7200;192;53;10;10;8400;3000;3368;3368;1;13017;31.84;30.84;31,9;BCS1388054;5;17
009669;16.12.2019;20:48:55;Stop          ;03.12.2018;FEY;;LION;49;14500;7200;128;53;85;90;8400;3000;4067;4069;1;13018;31.94;34.74;31,9;BCS1388054;5;17
009669;17.12.2019;08:37:54;Fastcharge    ;03.12.2018;FEY;;LION;49;14500;7200;192;53;85;90;8400;3000;4048;4048;1;13016;26.14;27.74;31,6;BCS1388054;5;17
009669;17.12.2019;10:33:46;Stop          ;03.12.2018;FEY;;LION;49;14500;7200;224;53;95;100;8400;;4160;4161;1;13017;27.94;29.14;31,1;BCS1388054;5;17
009669;17.12.2019;10:33:46;Stop          ;03.12.2018;FEY;;LION;49;14500;7200;224;53;95;100;8400;;4160;4161;1;13017;27.94;29.14;31,1;BCS1388054;5;17
009669;17.12.2019;13:38:36;Charge to 10% ;03.12.2018;FEY;;LION;49;14500;7200;224;53;95;100;8400;;4150;4150;1;13017;26.44;27.74;30,8;BCS1388054;5;17
009669;17.12.2019;20:33:18;Stop          ;03.12.2018;FEY;;LION;49;14500;7200;192;54;10;10;8400;3000;3363;3364;1;13016;34.14;35.64;34,5;BCS1388054;5;17
009669;18.12.2019;08:31:30;Fastcharge    ;03.12.2018;FEY;;LION;49;14500;7200;192;54;10;10;8400;3000;3375;3376;1;13017;26.24;27.94;31,6;BCS1388054;5;17
009669;18.12.2019;14:29:28;Stop          ;03.12.2018;FEY;;LION;49;14500;7200;224;54;96;100;8400;;4161;4162;1;13017;29.94;30.44;31,7;BCS1388054;5;17
009669;19.12.2019;08:24:02;Charge to 60% ;03.12.2018;FEY;;LION;49;14500;7200;224;54;96;100;8400;;4149;4150;1;13016;26.14;27.74;31,5;BCS1388054;5;17
009669;19.12.2019;11:31:09;Stop          ;03.12.2018;FEY;;LION;49;14500;7200;192;55;58;60;8400;3000;3766;3767;1;13016;33.74;35.54;34,4;BCS1388054;5;17
009669;19.12.2019;12:16:49;Cycle         ;03.12.2018;FEY;;LION;49;14500;7200;192;55;58;60;8400;3000;3780;3782;1;13017;30.34;30.24;32,7;BCS1388054;5;17
009669;20.12.2019;17:27:50;Stop          ;03.12.2018;FEY;;LION;49;14500;7200;224;56;94;100;8400;;4152;4151;1;13017;26.64;27.84;31,0;BCS1388054;5;17
009669;06.01.2020;06:34:55;Charge to 60% ;03.12.2018;FEY;;LION;49;14500;7200;224;56;93;99;8400;;4123;4122;1;13017;26.44;27.94;31,9;BCS1388054;5;17
009669;06.01.2020;09:30:26;Stop          ;03.12.2018;FEY;;LION;49;14500;7200;192;56;57;60;8400;3000;3763;3763;1;13017;32.94;36.24;33,9;BCS1388054;5;17
009669;06.01.2020;09:50:42;Fastcharge    ;03.12.2018;FEY;;LION;49;14500;7200;192;56;57;60;8400;3000;3779;3779;1;13017;31.44;31.04;32,7;BCS1388054;5;17
009669;06.01.2020;13:09:56;Stop          ;03.12.2018;FEY;;LION;49;14500;7200;224;56;95;100;8400;;4160;4161;1;13018;29.44;29.94;31,4;BCS1388054;5;17