File: V1/reader/Batterieverzeichnis/009675.txt
Serialnumber ; Date ; Time ; Action ; Date of Manufacture ; Manufacturer ; Battery Name ; Device-Chemistry ; Specification-Info ; Design-Capacity [mAh] ; Design-Voltage [mV] ; Battery Status ; Cycle Count ; SOC [%] ; Relativ SOC[%] ; Desired Voltage [mV]; Desired Current [mA]; Cell Voltage 1 [mV] ; Cell Voltage 2 [mV] ; Max_Error [%] ; Busvoltage[mV] ; Battery Temperature [°C] ; Charger Temperature [°C] ; Batterysystem ; Case ; PLace
009675;12.01.2021;04:17:28;Ladung auf 90% ;03.12.2018;FEY;;LION;49;14500;7200;192;2;97;97;8400;;4129;4128;1;13009;22.44;23.04;23,6;BCS1388054;3;4
009675;12.01.2021;04:57:30;Stop           ;03.12.2018;FEY;;LION;49;14500;7200;192;2;91;90;8400;3000;4062;4062;1;13005;26.34;28.94;31,5;BCS1388054;3;4
009675;12.01.2021;05:21:45;Cycle          ;03.12.2018;FEY;;LION;49;14500;7200;192;2;91;90;8400;3000;4066;4066;1;13005;26.54;27.44;30,4;BCS1388054;3;4
009675;13.01.2021;08:23:25;Stop           ;03.12.2018;FEY;;LION;49;14500;7200;224;4;97;100;8400;;4156;4156;1;13004;26.44;27.44;31,4;BCS1388054;3;4
009675;03.03.2021;08:17:46;Normalcharge  ;03.12.2018;FEY;;LION;49;14500;7200;192;5;26;26;8400;3000;3520;3520;1;13028;22.54;23.04;23,6;BCS1388054;7;11
009675;03.03.2021;10:54:05;Stop          ;03.12.2018;FEY;;LION;49;14500;7200;128;5;58;59;8400;3000;3856;3808;1;12691;29.54;31.84;31,4;BCS1388054;7;11
009675;03.03.2021;10:55:49;Normalcharge  ;03.12.2018;FEY;;LION;49;14500;7200;192;5;58;60;8400;3000;3771;3772;1;13020;29.44;29.84;30,6;BCS1388054;7;11
009675;03.03.2021;17:03:24;Stop          ;03.12.2018;FEY;;LION;49;14500;7200;224;5;98;100;8400;;4153;4151;1;13023;25.54;26.44;31,4;BCS1388054;7;11