File: V1/reader/Batterieverzeichnis/009631.txt
Serialnumber ; Date ; Time ; Action ; Date of Manufacture ; Manufacturer ; Battery Name ; Device-Chemistry ; Specification-Info ; Design-Capacity [mAh] ; Design-Voltage [mV] ; Battery Status ; Cycle Count ; SOC [%] ; Relativ SOC[%] ; Desired Voltage [mV]; Desired Current [mA]; Cell Voltage 1 [mV] ; Cell Voltage 2 [mV] ; Max_Error [%] ; Busvoltage[mV] ; Battery Temperature [°C] ; Charger Temperature [°C] ; Batterysystem ; Case ; PLace
009631;10.12.2019;15:29:01;Charge to 30% ;04.12.2018;FEY;;LION;49;14500;7200;224;44;93;100;8400;;4130;4130;1;13023;22.64;24.54;27,1;BCS1388054;5;8
009631;10.12.2019;20:48:54;Stop          ;04.12.2018;FEY;;LION;49;14500;7200;192;45;29;30;8400;3000;3559;3559;1;13020;34.24;33.94;33,1;BCS1388054;5;8
009631;11.12.2019;08:48:53;Fastcharge    ;04.12.2018;FEY;;LION;49;14500;7200;192;45;29;30;8400;3000;3568;3567;1;13020;26.84;28.24;31,9;BCS1388054;5;8
009631;11.12.2019;13:40:11;Stop          ;04.12.2018;FEY;;LION;49;14500;7200;224;45;95;100;8400;;4163;4163;1;13020;31.04;30.94;32,4;BCS1388054;5;8
009631;11.12.2019;15:46:40;Charge to 10% ;04.12.2018;FEY;;LION;49;14500;7200;224;45;96;100;8400;;4154;4154;1;13020;27.64;28.64;31,4;BCS1388054;5;8
009631;11.12.2019;22:49:07;Stop          ;04.12.2018;FEY;;LION;49;14500;7200;192;46;10;10;8400;3000;3357;3356;1;13019;35.14;34.64;33,5;BCS1388054;5;8
009631;12.12.2019;08:45:10;Normalcharge  ;04.12.2018;FEY;;LION;49;14500;7200;192;46;9;10;8400;3000;3366;3366;1;13020;26.94;28.44;31,7;BCS1388054;5;8
009631;12.12.2019;16:41:20;Stop          ;04.12.2018;FEY;;LION;49;14500;7200;224;46;96;100;8400;;4160;4160;1;13020;29.94;30.14;31,6;BCS1388054;5;8
009631;13.12.2019;10:48:05;Charge to 10% ;04.12.2018;FEY;;LION;49;14500;7200;224;46;96;100;8400;;4148;4148;1;13019;26.94;28.54;32,0;BCS1388054;5;8
009631;13.12.2019;15:40:55;Stop          ;04.12.2018;FEY;;LION;49;14500;7200;192;47;35;37;8400;3000;3504;3555;1;13524;33.34;38.74;34,6;BCS1388054;5;8
009631;13.12.2019;15:41:42;Cycle         ;04.12.2018;FEY;;LION;49;14500;7200;192;47;35;37;8400;3000;3585;3584;1;13018;33.24;36.64;34,5;BCS1388054;5;8
009631;14.12.2019;22:39:35;Stop          ;04.12.2018;FEY;;LION;49;14500;7200;224;48;93;99;8400;;4152;4152;1;13019;27.04;28.34;31,7;BCS1388054;5;8
009631;16.12.2019;07:43:20;Charge to 10% ;04.12.2018;FEY;;LION;49;14500;7200;224;48;94;100;8400;;4145;4146;1;13020;26.74;27.64;31,9;BCS1388054;5;8
009631;16.12.2019;14:34:29;Stop          ;04.12.2018;FEY;;LION;49;14500;7200;192;49;10;10;8400;3000;3364;3365;1;13020;33.24;33.34;32,5;BCS1388054;5;8
009631;16.12.2019;14:44:17;Charge to 90% ;04.12.2018;FEY;;LION;49;14500;7200;192;49;10;10;8400;3000;3368;3368;1;13020;32.54;31.04;31,9;BCS1388054;5;8
009631;16.12.2019;20:48:55;Stop          ;04.12.2018;FEY;;LION;49;14500;7200;192;49;84;90;8400;3000;4057;4059;1;13021;32.84;32.64;31,9;BCS1388054;5;8
009631;17.12.2019;08:37:53;Fastcharge    ;04.12.2018;FEY;;LION;49;14500;7200;192;49;84;90;8400;3000;4046;4047;1;13020;26.84;28.24;31,6;BCS1388054;5;8
009631;17.12.2019;10:33:46;Stop          ;04.12.2018;FEY;;LION;49;14500;7200;224;49;95;100;8400;;4158;4158;1;13019;28.64;29.34;31,1;BCS1388054;5;8
009631;17.12.2019;10:33:46;Stop          ;04.12.2018;FEY;;LION;49;14500;7200;224;49;95;100;8400;;4158;4158;1;13019;28.64;29.34;31,1;BCS1388054;5;8
009631;17.12.2019;13:38:36;Charge to 10% ;04.12.2018;FEY;;LION;49;14500;7200;224;49;95;100;8400;;4149;4149;1;13020;27.14;28.24;30,8;BCS1388054;5;8
009631;17.12.2019;20:33:18;Stop          ;04.12.2018;FEY;;LION;49;14500;7200;192;50;10;10;8400;3000;3363;3363;1;13019;35.14;34.74;34,5;BCS1388054;5;8
009631;18.12.2019;08:31:30;Fastcharge    ;04.12.2018;FEY;;LION;49;14500;7200;192;50;10;10;8400;3000;3373;3373;1;13020;26.94;28.34;31,6;BCS1388054;5;8
009631;18.12.2019;14:29:27;Stop          ;04.12.2018;FEY;;LION;49;14500;7200;224;50;95;100;8400;;4161;4161;1;13021;30.94;30.54;31,7;BCS1388054;5;8
009631;19.12.2019;08:24:02;Charge to 60% ;04.12.2018;FEY;;LION;49;14500;7200;224;50;96;100;8400;;4149;4149;1;13020;26.94;28.24;31,5;BCS1388054;5;8
009631;19.12.2019;11:31:09;Stop          ;04.12.2018;FEY;;LION;49;14500;7200;192;50;58;60;8400;3000;3769;3769;1;13019;34.74;34.94;34,4;BCS1388054;5;8
009631;19.12.2019;12:16:49;Cycle         ;04.12.2018;FEY;;LION;49;14500;7200;192;50;58;60;8400;3000;3778;3779;1;13019;31.34;30.64;32,7;BCS1388054;5;8
009631;20.12.2019;17:27:50;Stop          ;04.12.2018;FEY;;LION;49;14500;7200;224;52;94;100;8400;;4152;4152;1;13021;27.34;28.34;31,0;BCS1388054;5;8
009631;06.01.2020;06:34:55;Charge to 60% ;04.12.2018;FEY;;LION;49;14500;7200;192;52;92;98;8400;;4122;4122;1;13021;27.24;28.44;31,9;BCS1388054;5;8
009631;06.01.2020;09:30:26;Stop          ;04.12.2018;FEY;;LION;49;14500;7200;192;52;57;60;8400;3000;3772;3772;1;13020;33.84;34.34;33,9;BCS1388054;5;8
009631;06.01.2020;09:50:42;Fastcharge    ;04.12.2018;FEY;;LION;49;14500;7200;192;52;57;60;8400;3000;3780;3781;1;13021;32.44;31.24;32,7;BCS1388054;5;8
009631;06.01.2020;13:09:56;Stop          ;04.12.2018;FEY;;LION;49;14500;7200;224;52;94;100;8400;;4159;4159;1;13021;30.44;30.14;31,4;BCS1388054;5;8