File: V1/reader/Batterieverzeichnis/009608.txt
Serialnumber ; Date ; Time ; Action ; Date of Manufacture ; Manufacturer ; Battery Name ; Device-Chemistry ; Specification-Info ; Design-Capacity [mAh] ; Design-Voltage [mV] ; Battery Status ; Cycle Count ; SOC [%] ; Relativ SOC[%] ; Desired Voltage [mV]; Desired Current [mA]; Cell Voltage 1 [mV] ; Cell Voltage 2 [mV] ; Max_Error [%] ; Busvoltage[mV] ; Battery Temperature [°C] ; Charger Temperature [°C] ; Batterysystem ; Case ; PLace
009608;10.12.2019;15:28:53;Charge to 30% ;04.12.2018;FEY;;LION;49;14500;7200;224;55;93;100;8400;;4129;4128;1;13012;22.74;25.14;27,1;BCS1388054;4;3
009608;10.12.2019;20:47:57;Stop          ;04.12.2018;FEY;;LION;49;14500;7200;192;56;29;30;8400;3000;3559;3557;1;13008;33.94;34.44;33,4;BCS1388054;4;3
009608;11.12.2019;08:48:41;Fastcharge    ;04.12.2018;FEY;;LION;49;14500;7200;192;56;29;30;8400;3000;3567;3566;1;13010;26.64;29.24;31,9;BCS1388054;4;3
009608;11.12.2019;13:42:44;Stop          ;04.12.2018;FEY;;LION;49;14500;7200;224;56;94;100;8400;;4161;4162;1;13010;30.44;31.04;31,9;BCS1388054;4;3
009608;11.12.2019;15:46:31;Charge to 10% ;04.12.2018;FEY;;LION;49;14500;7200;224;56;96;100;8400;;4154;4154;1;13009;27.44;29.44;31,4;BCS1388054;4;3
009608;11.12.2019;22:50:44;Stop          ;04.12.2018;FEY;;LION;49;14500;7200;192;57;10;10;8400;3000;3355;3354;1;13008;34.64;34.34;33,2;BCS1388054;4;3
009608;12.12.2019;08:45:03;Normalcharge  ;04.12.2018;FEY;;LION;49;14500;7200;192;57;9;10;8400;3000;3364;3363;1;13010;26.84;29.34;31,9;BCS1388054;4;3
009608;12.12.2019;16:41:48;Stop          ;04.12.2018;FEY;;LION;49;14500;7200;224;57;96;100;8400;;4162;4163;1;13010;29.54;30.74;31,5;BCS1388054;4;3
009608;13.12.2019;10:48:01;Charge to 10% ;04.12.2018;FEY;;LION;49;14500;7200;224;57;96;100;8400;;4149;4149;1;13009;26.84;29.44;32,0;BCS1388054;4;3
009608;13.12.2019;15:42:25;Stop          ;04.12.2018;FEY;;LION;49;14500;7200;192;58;35;36;8400;3000;3499;3550;1;13499;33.24;39.64;34,6;BCS1388054;4;3
009608;13.12.2019;15:42:27;Cycle         ;04.12.2018;FEY;;LION;49;14500;7200;192;58;35;36;8400;3000;3499;3550;1;13008;33.24;39.64;34,6;BCS1388054;4;3
009608;14.12.2019;22:44:28;Stop          ;04.12.2018;FEY;;LION;49;14500;7200;224;59;93;99;8400;;4151;4151;1;13010;26.94;29.44;32,0;BCS1388054;4;3
009608;16.12.2019;07:43:14;Charge to 10% ;04.12.2018;FEY;;LION;49;14500;7200;224;59;94;100;8400;;4146;4146;1;13010;26.64;28.84;31,9;BCS1388054;4;3
009608;16.12.2019;14:36:44;Stop          ;04.12.2018;FEY;;LION;49;14500;7200;192;60;10;10;8400;3000;3365;3363;1;13010;33.04;33.04;32,4;BCS1388054;4;3
009608;16.12.2019;14:44:13;Charge to 90% ;04.12.2018;FEY;;LION;49;14500;7200;192;60;10;10;8400;3000;3367;3365;1;13009;32.54;31.84;31,7;BCS1388054;4;3
009608;16.12.2019;20:50:27;Stop          ;04.12.2018;FEY;;LION;49;14500;7200;192;60;84;90;8400;3000;4055;4055;1;13010;32.14;32.24;31,6;BCS1388054;4;3
009608;17.12.2019;08:37:49;Fastcharge    ;04.12.2018;FEY;;LION;49;14500;7200;192;60;84;90;8400;3000;4045;4045;1;13010;26.64;29.14;31,6;BCS1388054;4;3
009608;17.12.2019;10:31:06;Stop          ;04.12.2018;FEY;;LION;49;14500;7200;224;60;95;100;8400;;4163;4163;1;13010;28.34;30.74;31,4;BCS1388054;4;3
009608;17.12.2019;13:38:32;Charge to 10% ;04.12.2018;FEY;;LION;49;14500;7200;224;60;95;100;8400;;4150;4150;1;13010;26.94;29.04;30,8;BCS1388054;4;3
009608;17.12.2019;20:34:29;Stop          ;04.12.2018;FEY;;LION;49;14500;7200;192;62;10;10;8400;3000;3362;3361;1;13009;34.74;34.74;34,1;BCS1388054;4;3
009608;18.12.2019;08:31:26;Fastcharge    ;04.12.2018;FEY;;LION;49;14500;7200;192;62;10;10;8400;3000;3372;3371;1;13010;26.74;29.24;31,6;BCS1388054;4;3
009608;18.12.2019;14:29:12;Stop          ;04.12.2018;FEY;;LION;49;14500;7200;224;62;95;100;8400;;4161;4161;1;13010;30.44;31.24;31,9;BCS1388054;4;3
009608;19.12.2019;08:23:58;Charge to 60% ;04.12.2018;FEY;;LION;49;14500;7200;224;62;96;100;8400;;4149;4149;1;13010;26.74;29.24;31,6;BCS1388054;4;3
009608;19.12.2019;11:30:18;Stop          ;04.12.2018;FEY;;LION;49;14500;7200;192;62;58;60;8400;3000;3764;3761;1;13008;34.54;35.84;34,6;BCS1388054;4;3
009608;19.12.2019;12:16:45;Cycle         ;04.12.2018;FEY;;LION;49;14500;7200;192;62;58;60;8400;3000;3775;3772;1;13009;31.04;31.54;32,7;BCS1388054;4;3
009608;20.12.2019;17:30:48;Stop          ;04.12.2018;FEY;;LION;49;14500;7200;224;63;94;100;8400;;4152;4151;1;13011;27.14;28.94;30,6;BCS1388054;4;3
009608;06.01.2020;06:34:50;Charge to 60% ;04.12.2018;FEY;;LION;49;14500;7200;224;63;93;99;8400;;4123;4122;1;13011;26.84;29.34;31,9;BCS1388054;4;3
009608;06.01.2020;09:30:33;Stop          ;04.12.2018;FEY;;LION;49;14500;7200;192;64;57;60;8400;3000;3766;3763;1;13009;33.64;34.84;33,7;BCS1388054;4;3
009608;06.01.2020;09:50:38;Fastcharge    ;04.12.2018;FEY;;LION;49;14500;7200;192;64;57;60;8400;3000;3776;3772;1;13010;32.14;32.14;32,7;BCS1388054;4;3
009608;06.01.2020;13:09:19;Stop          ;04.12.2018;FEY;;LION;49;14500;7200;224;64;94;100;8400;;4159;4159;1;13010;29.94;30.64;31,4;BCS1388054;4;3