File: V1/reader/Batterieverzeichnis/009742.txt
Serialnumber ; Date ; Time ; Action ; Date of Manufacture ; Manufacturer ; Battery Name ; Device-Chemistry ; Specification-Info ; Design-Capacity [mAh] ; Design-Voltage [mV] ; Battery Status ; Cycle Count ; SOC [%] ; Relativ SOC[%] ; Desired Voltage [mV]; Desired Current [mA]; Cell Voltage 1 [mV] ; Cell Voltage 2 [mV] ; Max_Error [%] ; Busvoltage[mV] ; Battery Temperature [°C] ; Charger Temperature [°C] ; Batterysystem ; Case ; PLace
009742;01.12.2020;07:00:16;Cycle         ;04.12.2018;FEY;;LION;49;14500;7200;16576;3;98;100;;;4144;4143;1;13000;25.74;25.34;26,7;BCS1388054;1;4
009742;01.12.2020;11:17:17;Stop          ;04.12.2018;FEY;;LION;49;14500;7200;16576;3;98;100;;;4143;4142;1;12994;26.94;27.64;28,8;BCS1388054;1;4
009742;12.01.2021;04:17:40;Charge to 90% ;04.12.2018;FEY;;LION;49;14500;7200;16576;3;96;99;;;4126;4125;1;13009;23.34;22.84;23,6;BCS1388054;6;5
009742;12.01.2021;05:00:55;Stop          ;04.12.2018;FEY;;LION;49;14500;7200;192;3;83;90;8400;3000;4039;4036;1;13003;27.84;27.34;31,2;BCS1388054;6;5
009742;12.01.2021;05:21:57;Cycle         ;04.12.2018;FEY;;LION;49;14500;7200;192;3;83;90;8400;3000;4045;4043;1;13004;27.54;26.34;30,4;BCS1388054;6;5
009742;13.01.2021;08:31:18;Stop          ;04.12.2018;FEY;;LION;49;14500;7200;224;5;95;100;8400;;4154;4154;1;13004;27.04;26.44;31,1;BCS1388054;6;5
009742;21.02.2021;13:43:49;Normalcharge  ;04.12.2018;FEY;;LION;49;14500;7200;224;5;94;99;8400;;4131;4130;1;13007;23.14;22.34;27,7;BCS1388054;3;16
009742;21.02.2021;20:44:52;Stop           ;04.12.2018;FEY;;LION;49;14500;7200;224;5;94;99;8400;;4131;4130;1;13001;26.94;26.84;31,2;BCS1388054;3;16