File: V1/reader/Batterieverzeichnis/009709.txt
Serialnumber ; Date ; Time ; Action ; Date of Manufacture ; Manufacturer ; Battery Name ; Device-Chemistry ; Specification-Info ; Design-Capacity [mAh] ; Design-Voltage [mV] ; Battery Status ; Cycle Count ; SOC [%] ; Relativ SOC[%] ; Desired Voltage [mV]; Desired Current [mA]; Cell Voltage 1 [mV] ; Cell Voltage 2 [mV] ; Max_Error [%] ; Busvoltage[mV] ; Battery Temperature [°C] ; Charger Temperature [°C] ; Batterysystem ; Case ; PLace
009709;07.12.2020;04:14:32;Cycle         ;04.12.2018;FEY;;LION;49;14500;7200;192;4;96;98;8400;;4143;4142;1;13010;26.04;28.24;30,3;BCS1388054;5;5
009709;08.12.2020;16:20:01;Stop          ;04.12.2018;FEY;;LION;49;14500;7200;192;4;96;98;8400;;4141;4140;1;13010;28.04;29.64;31,7;BCS1388054;5;5
009709;12.01.2021;04:17:47;Charge to 90% ;04.12.2018;FEY;;LION;49;14500;7200;192;4;95;97;8400;;4126;4125;1;13030;23.24;23.24;23,8;BCS1388054;7;13
009709;12.01.2021;04:57:20;Stop          ;04.12.2018;FEY;;LION;49;14500;7200;192;4;90;90;8400;3000;4060;4059;1;13025;26.84;29.44;31,5;BCS1388054;7;13
009709;12.01.2021;05:22:01;Cycle         ;04.12.2018;FEY;;LION;49;14500;7200;192;4;90;90;8400;3000;4065;4065;1;13026;27.04;27.84;30,4;BCS1388054;7;13
009709;13.01.2021;08:19:29;Stop          ;04.12.2018;FEY;;LION;49;14500;7200;224;5;97;100;8400;;4155;4154;1;13027;26.94;27.64;30,7;BCS1388054;7;13
009709;22.02.2021;17:31:46;Normalcharge  ;04.12.2018;FEY;;LION;49;14500;7200;192;5;71;73;8400;3000;3880;3880;1;12995;26.64;28.24;31,6;BCS1388054;1;15
009709;22.02.2021;23:06:28;Stop          ;04.12.2018;FEY;;LION;49;14500;7200;224;5;97;100;8400;;4152;4151;1;12997;27.04;29.44;30,6;BCS1388054;1;15