File: reader/backup_20220214/Batterieverzeichnis_new/001071.txt
Serialnumber ; Date ; Time ; Action ; Date of Manufacture ; Manufacturer ; Battery Name ; Device-Chemistry ; Specification-Info ; Design-Capacity [mAh] ; Design-Voltage [mV] ; Battery Status ; Cycle Count ; SOC [%] ; Relativ SOC[%] ; Desired Voltage [mV]; Desired Current [mA]; Cell Voltage 1 [mV] ; Cell Voltage 2 [mV] ; Max_Error [%] ; Busvoltage[mV] ; Battery Temperature [°C] ; Charger Temperature [°C] ; Batterysystem ; Case ; PLace
001071;10.12.2019;15:29:15;Charge to 30% ;15.02.2018;FEY;;LION;49;14500;7200;224;21;94;99;8400;;4123;4123;1;13025;22.24;24.14;27,1;BCS1388054;7;15
001071;10.12.2019;20:46:56;Stop          ;15.02.2018;FEY;;LION;49;14500;7200;192;22;29;30;8400;3000;3557;3556;1;13024;33.04;32.84;33,5;BCS1388054;7;15
001071;11.12.2019;08:49:12;Fastcharge    ;15.02.2018;FEY;;LION;49;14500;7200;192;22;29;30;8400;3000;3567;3566;1;13024;25.74;27.04;31,9;BCS1388054;7;15
001071;11.12.2019;13:38:42;Stop          ;15.02.2018;FEY;;LION;49;14500;7200;224;22;95;100;8400;;4161;4161;1;13025;29.84;29.34;32,7;BCS1388054;7;15
001071;11.12.2019;15:46:56;Charge to 10% ;15.02.2018;FEY;;LION;49;14500;7200;224;22;97;100;8400;;4155;4154;1;13024;26.64;27.34;31,2;BCS1388054;7;15
001071;11.12.2019;22:51:50;Stop          ;15.02.2018;FEY;;LION;49;14500;7200;192;23;10;10;8400;3000;3352;3351;1;13024;33.84;32.14;33,0;BCS1388054;7;15
001071;12.12.2019;08:45:27;Normalcharge  ;15.02.2018;FEY;;LION;49;14500;7200;192;23;9;10;8400;3000;3362;3361;1;13025;25.94;27.14;31,7;BCS1388054;7;15
001071;12.12.2019;16:41:08;Stop          ;15.02.2018;FEY;;LION;49;14500;7200;224;23;96;100;8400;;4163;4163;1;13024;28.94;28.74;31,6;BCS1388054;7;15
001071;13.12.2019;10:48:13;Charge to 10% ;15.02.2018;FEY;;LION;49;14500;7200;224;23;96;100;8400;;4151;4151;1;13025;25.94;27.24;32,0;BCS1388054;7;15
001071;13.12.2019;13:48:48;Stop          ;15.02.2018;FEY;;LION;49;14500;7200;192;24;58;61;8400;3000;3691;3737;1;13536;34.24;40.54;36,8;BCS1388054;7;15
001071;16.12.2019;07:43:34;Charge to 10% ;15.02.2018;FEY;;LION;49;14500;7200;192;24;61;63;8400;3000;3790;3789;1;13025;22.34;26.04;31,7;BCS1388054;7;15
001071;16.12.2019;11:52:34;Stop          ;15.02.2018;FEY;;LION;49;14500;7200;192;25;10;10;8400;3000;3341;3340;1;13024;32.94;32.04;34,7;BCS1388054;7;15
001071;16.12.2019;14:44:25;Charge to 90% ;15.02.2018;FEY;;LION;49;14500;7200;192;25;9;10;8400;3000;3350;3349;1;13025;28.54;28.84;31,7;BCS1388054;7;15
001071;16.12.2019;20:53:59;Stop          ;15.02.2018;FEY;;LION;49;14500;7200;192;25;85;90;8400;3000;4029;4030;1;13025;31.54;30.44;32,1;BCS1388054;7;15
001071;17.12.2019;08:38:02;Fastcharge    ;15.02.2018;FEY;;LION;49;14500;7200;192;25;83;88;8400;3000;4020;4020;1;13024;25.84;27.04;31,6;BCS1388054;7;15
001071;17.12.2019;10:36:25;Stop          ;15.02.2018;FEY;;LION;49;14500;7200;224;25;95;100;8400;;4161;4161;1;13025;27.74;28.24;31,5;BCS1388054;7;15
001071;17.12.2019;13:38:44;Charge to 10% ;15.02.2018;FEY;;LION;49;14500;7200;224;25;95;100;8400;;4153;4152;1;13024;26.14;27.14;30,8;BCS1388054;7;15
001071;17.12.2019;20:42:03;Stop          ;15.02.2018;FEY;;LION;49;14500;7200;192;26;10;10;8400;3000;3356;3355;1;13024;33.64;31.54;32,6;BCS1388054;7;15
001071;18.12.2019;08:31:43;Fastcharge    ;15.02.2018;FEY;;LION;49;14500;7200;192;26;9;9;8400;3000;3365;3364;1;13024;25.94;27.14;31,6;BCS1388054;7;15
001071;18.12.2019;14:30:48;Stop          ;15.02.2018;FEY;;LION;49;14500;7200;224;26;94;100;8400;;4162;4162;1;13025;29.84;29.04;31,6;BCS1388054;7;15
001071;19.12.2019;08:24:17;Charge to 60% ;15.02.2018;FEY;;LION;49;14500;7200;224;26;95;100;8400;;4151;4151;1;13024;25.84;27.14;31,6;BCS1388054;7;15
001071;19.12.2019;11:28:26;Stop          ;15.02.2018;FEY;;LION;49;14500;7200;192;26;57;60;8400;3000;3768;3767;1;13024;33.54;35.34;35,1;BCS1388054;7;15
001071;19.12.2019;12:16:57;Cycle         ;15.02.2018;FEY;;LION;49;14500;7200;192;26;57;60;8400;3000;3784;3782;1;13027;30.04;29.14;32,7;BCS1388054;7;15
001071;20.12.2019;17:22:28;Stop          ;15.02.2018;FEY;;LION;49;14500;7200;224;27;94;100;8400;;4154;4153;1;13025;26.34;27.34;31,9;BCS1388054;7;15
001071;06.01.2020;06:35:02;Charge to 60% ;15.02.2018;FEY;;LION;49;14500;7200;192;27;93;98;8400;;4124;4123;1;13026;25.94;27.24;31,9;BCS1388054;7;15
001071;06.01.2020;09:29:52;Stop          ;15.02.2018;FEY;;LION;49;14500;7200;192;28;57;60;8400;3000;3767;3764;1;13026;32.74;34.24;34,0;BCS1388054;7;15
001071;06.01.2020;09:50:50;Fastcharge    ;15.02.2018;FEY;;LION;49;14500;7200;192;28;57;60;8400;3000;3780;3778;1;13027;31.14;29.64;32,7;BCS1388054;7;15
001071;06.01.2020;13:05:11;Stop          ;15.02.2018;FEY;;LION;49;14500;7200;224;28;95;100;8400;;4160;4159;1;13026;29.44;29.14;32,4;BCS1388054;7;15