File: reader/backup_20220214/Batterieverzeichnis_new/009592.txt
Serialnumber ; Date ; Time ; Action ; Date of Manufacture ; Manufacturer ; Battery Name ; Device-Chemistry ; Specification-Info ; Design-Capacity [mAh] ; Design-Voltage [mV] ; Battery Status ; Cycle Count ; SOC [%] ; Relativ SOC[%] ; Desired Voltage [mV]; Desired Current [mA]; Cell Voltage 1 [mV] ; Cell Voltage 2 [mV] ; Max_Error [%] ; Busvoltage[mV] ; Battery Temperature [°C] ; Charger Temperature [°C] ; Batterysystem ; Case ; PLace
009592;07.12.2020;04:14:21;Cycle         ;04.12.2018;FEY;;LION;49;14500;7200;224;3;97;99;8400;;4155;4155;1;12998;26.04;28.34;30,3;BCS1388054;2;10
009592;08.12.2020;16:19:44;Stop          ;04.12.2018;FEY;;LION;49;14500;7200;224;5;97;100;8400;;4151;4151;1;12998;28.14;29.74;31,9;BCS1388054;2;10
009592;03.03.2021;08:17:08;Normalcharge  ;04.12.2018;FEY;;LION;49;14500;7200;192;5;95;97;8400;;4111;4111;1;13000;23.44;22.84;23,5;BCS1388054;1;11
009592;04.03.2021;07:53:51;Stop          ;04.12.2018;FEY;;LION;49;14500;7200;192;5;95;97;8400;;4111;4110;1;12992;26.34;26.44;31,6;BCS1388054;1;11
009592;04.04.2021;11:50:22;Normalcharge  ;04.12.2018;FEY;;LION;49;14500;7200;192;5;50;51;8400;3000;3661;3661;1;12994;25.14;27.14;27,9;BCS1388054;4;2
009592;04.04.2021;11:51:36;Stop          ;04.12.2018;FEY;;LION;49;14500;7200;128;5;50;52;8400;3000;3745;3699;1;12716;25.24;29.94;28,6;BCS1388054;4;2
009592;05.04.2021;09:38:17;Charge to 60% ;04.12.2018;FEY;;LION;49;14500;7200;192;5;50;52;8400;3000;3662;3662;1;13015;25.34;26.74;26,4;BCS1388054;5;5
009592;05.04.2021;10:34:50;Charge to 60% ;04.12.2018;FEY;;LION;49;14500;7200;192;5;58;60;8400;3000;3742;3742;1;12919;28.04;29.64;32,4;BCS1388054;5;5
009592;05.04.2021;13:16:09;Stop          ;04.12.2018;FEY;;LION;49;14500;7200;192;5;58;60;8400;3000;3740;3740;1;13011;27.84;29.64;32,2;BCS1388054;5;5
009592;22.08.2021;11:07:50;Normalcharge  ;04.12.2018;FEY;;LION;49;14500;7200;192;5;41;42;8400;3000;3604;3604;1;12996;22.64;29.94;32,0;BCS1388054;1;7
009592;22.08.2021;11:08:23;Stop          ;04.12.2018;FEY;;LION;49;14500;7200;128;5;41;42;8400;3000;3663;3630;1;12620;22.84;31.04;32,4;BCS1388054;1;7
009592;25.08.2021;08:14:57;Charge to 60% ;04.12.2018;FEY;;LION;49;14500;7200;192;5;41;42;8400;3000;3606;3607;1;12993;30.64;30.64;33,2;BCS1388054;6;12
009592;25.08.2021;09:50:39;Stop          ;04.12.2018;FEY;;LION;49;14500;7200;192;5;58;60;8400;3000;3742;3741;1;12990;34.14;32.74;36,4;BCS1388054;6;12
009592;01.11.2021;09:52:11;Normalcharge  ;04.12.2018;FEY;;LION;49;14500;7200;192;6;51;52;8400;3000;3666;3666;1;13004;24.84;24.84;26,4;BCS1388054;3;18
009592;01.11.2021;09:53:27;Stop           ;04.12.2018;FEY;;LION;49;14500;7200;128;6;51;52;8400;3000;3756;3707;1;12585;24.84;28.24;27,1;BCS1388054;3;18
009592;01.11.2021;10:02:09;Normalcharge  ;04.12.2018;FEY;;LION;49;14500;7200;192;6;51;52;8400;3000;3668;3668;1;13000;25.44;26.64;29,5;BCS1388054;3;18
009592;01.11.2021;10:03:20;Stop           ;04.12.2018;FEY;;LION;49;14500;7200;128;6;51;52;8400;3000;3757;3710;1;12585;25.54;29.64;29,5;BCS1388054;3;18
009592;01.11.2021;10:18:16;Normalcharge  ;04.12.2018;FEY;;LION;49;14500;7200;192;6;51;52;8400;3000;3670;3670;1;13001;25.84;26.44;28,2;BCS1388054;3;18
009592;01.11.2021;10:18:56;Stop           ;04.12.2018;FEY;;LION;49;14500;7200;128;6;51;52;8400;3000;3745;3703;1;12589;25.94;28.14;28,2;BCS1388054;3;18
009592;01.11.2021;10:27:50;Normalcharge  ;04.12.2018;FEY;;LION;49;14500;7200;192;6;51;52;8400;3000;3671;3671;1;13001;26.04;26.64;27,8;BCS1388054;3;18
009592;01.11.2021;10:29:05;Stop           ;04.12.2018;FEY;;LION;49;14500;7200;128;6;51;53;8400;3000;3760;3711;1;12552;26.14;29.84;28,5;BCS1388054;3;18
009592;01.11.2021;10:32:24;Ladung auf 60% ;04.12.2018;FEY;;LION;49;14500;7200;192;6;51;53;8400;3000;3673;3673;1;13001;26.24;27.44;29,7;BCS1388054;3;18
009592;01.11.2021;15:19:46;Stop           ;04.12.2018;FEY;;LION;49;14500;7200;192;6;58;60;8400;3000;3742;3741;1;12999;28.94;29.64;32,7;BCS1388054;3;18
009592;09.02.2022;08:16:56;Normalcharge  ;04.12.2018;FEY;;LION;49;14500;7200;192;6;54;56;8400;3000;3703;3703;1;13010;22.74;23.24;23,1;BCS1388054;2;4
009592;09.02.2022;12:43:52;Stop          ;04.12.2018;FEY;;LION;49;14500;7200;224;6;98;100;8400;;4163;4162;1;13003;26.44;27.54;29,9;BCS1388054;2;4