File: reader/backup_20220214/Batterieverzeichnis_new/009582.txt
Serialnumber ; Date ; Time ; Action ; Date of Manufacture ; Manufacturer ; Battery Name ; Device-Chemistry ; Specification-Info ; Design-Capacity [mAh] ; Design-Voltage [mV] ; Battery Status ; Cycle Count ; SOC [%] ; Relativ SOC[%] ; Desired Voltage [mV]; Desired Current [mA]; Cell Voltage 1 [mV] ; Cell Voltage 2 [mV] ; Max_Error [%] ; Busvoltage[mV] ; Battery Temperature [°C] ; Charger Temperature [°C] ; Batterysystem ; Case ; PLace
009582;25.08.2021;08:13:04;Normalcharge  ;04.12.2018;FEY;;LION;49;14500;7200;2768;2;;;8400;3000;2831;2897;1;13023;30.24;30.84;32,4;BCS1388054;7;16
009582;25.08.2021;08:13:16;Stop          ;04.12.2018;FEY;;LION;49;14500;7200;2768;2;;;8400;3000;2831;2897;1;13012;30.24;31.04;32,5;BCS1388054;7;16
009582;25.08.2021;08:14:41;Charge to 60% ;04.12.2018;FEY;;LION;49;14500;7200;2768;2;;;8400;3000;2835;2899;1;13022;30.24;31.14;33,0;BCS1388054;7;16
009582;25.08.2021;08:37:46;Stop          ;04.12.2018;FEY;;LION;49;14500;7200;144;2;2;2;8400;3000;3452;3408;1;12727;31.54;37.94;36,1;BCS1388054;7;16
009582;25.08.2021;08:38:03;Charge to 60% ;04.12.2018;FEY;;LION;49;14500;7200;144;2;2;2;8400;3000;3354;3362;1;13022;31.64;37.24;36,1;BCS1388054;7;16
009582;25.08.2021;13:26:36;Stop          ;04.12.2018;FEY;;LION;49;14500;7200;192;2;57;60;8400;3000;3795;3795;1;13021;33.94;33.14;36,4;BCS1388054;7;16
009582;01.11.2021;10:18:11;Normalcharge  ;04.12.2018;FEY;;LION;49;14500;7200;192;2;52;53;8400;3000;3690;3689;1;12995;23.44;28.04;28,4;BCS1388054;2;10
009582;01.11.2021;10:18:48;Stop          ;04.12.2018;FEY;;LION;49;14500;7200;128;2;52;53;8400;3000;3753;3717;1;12607;23.44;29.24;28,2;BCS1388054;2;10
009582;01.11.2021;10:28:53;Normalcharge  ;04.12.2018;FEY;;LION;49;14500;7200;192;2;52;53;8400;3000;3690;3690;1;12995;24.24;28.24;28,2;BCS1388054;2;10
009582;01.11.2021;10:29:00;Stop          ;04.12.2018;FEY;;LION;49;14500;7200;192;2;52;53;8400;3000;3691;3690;1;12983;24.24;28.34;28,4;BCS1388054;2;10
009582;01.11.2021;11:53:39;Stop          ;04.12.2018;FEY;;LION;49;14500;7200;192;2;58;60;8400;3000;3781;3781;1;12995;28.14;30.44;32,5;BCS1388054;2;10
009582;09.02.2022;08:16:46;Normalcharge  ;04.12.2018;FEY;;LION;49;14500;7200;192;2;56;57;8400;3000;3723;3723;1;13011;22.24;23.34;23,1;BCS1388054;3;13
009582;09.02.2022;12:49:54;Stop           ;04.12.2018;FEY;;LION;49;14500;7200;224;2;98;100;8400;;4160;4159;1;13005;26.04;28.14;29,9;BCS1388054;3;13