File: reader/backup_20220214/Batterieverzeichnis_new/009557.txt
Serialnumber ; Date ; Time ; Action ; Date of Manufacture ; Manufacturer ; Battery Name ; Device-Chemistry ; Specification-Info ; Design-Capacity [mAh] ; Design-Voltage [mV] ; Battery Status ; Cycle Count ; SOC [%] ; Relativ SOC[%] ; Desired Voltage [mV]; Desired Current [mA]; Cell Voltage 1 [mV] ; Cell Voltage 2 [mV] ; Max_Error [%] ; Busvoltage[mV] ; Battery Temperature [°C] ; Charger Temperature [°C] ; Batterysystem ; Case ; PLace
009557;25.08.2021;08:38:03;Charge to 60% ;04.12.2018;FEY;;LION;49;14500;7200;144;2;2;2;8400;3000;3063;3064;1;13015;27.84;34.24;36,1;BCS1388054;7;15
009557;25.08.2021;13:26:36;Stop          ;04.12.2018;FEY;;LION;49;14500;7200;128;2;58;60;8400;3000;3862;3812;1;13014;35.24;38.94;36,4;BCS1388054;7;15
009557;01.11.2021;09:52:06;Normalcharge  ;04.12.2018;FEY;;LION;49;14500;7200;192;2;52;52;8400;3000;3674;3674;1;13017;24.34;25.74;26,3;BCS1388054;4;16
009557;01.11.2021;09:53:35;Stop          ;04.12.2018;FEY;;LION;49;14500;7200;128;2;53;53;8400;3000;3763;3717;1;12611;24.34;28.94;27,1;BCS1388054;4;16
009557;01.11.2021;10:02:14;Normalcharge  ;04.12.2018;FEY;;LION;49;14500;7200;192;2;53;53;8400;3000;3677;3677;1;13012;24.64;27.74;29,5;BCS1388054;4;16
009557;01.11.2021;10:03:16;Stop          ;04.12.2018;FEY;;LION;49;14500;7200;128;2;53;53;8400;3000;3763;3717;1;12580;24.74;30.04;29,3;BCS1388054;4;16
009557;01.11.2021;10:18:21;Normalcharge  ;04.12.2018;FEY;;LION;49;14500;7200;192;2;53;53;8400;3000;3678;3679;1;13013;25.14;27.34;28,4;BCS1388054;4;16
009557;01.11.2021;10:19:03;Stop          ;04.12.2018;FEY;;LION;49;14500;7200;128;2;53;53;8400;3000;3755;3711;1;12569;25.24;28.94;28,2;BCS1388054;4;16
009557;01.11.2021;10:28:22;Normalcharge  ;04.12.2018;FEY;;LION;49;14500;7200;192;2;53;53;8400;3000;3679;3679;1;13012;25.44;27.54;27,9;BCS1388054;4;16
009557;01.11.2021;10:29:09;Stop          ;04.12.2018;FEY;;LION;49;14500;7200;128;2;53;53;8400;3000;3763;3715;1;12565;25.44;29.44;28,5;BCS1388054;4;16
009557;01.11.2021;10:32:29;Charge to 60% ;04.12.2018;FEY;;LION;49;14500;7200;192;2;53;53;8400;3000;3680;3681;1;13014;25.54;27.94;29,7;BCS1388054;4;16
009557;01.11.2021;15:19:33;Stop          ;04.12.2018;FEY;;LION;49;14500;7200;192;2;59;60;8400;3000;3769;3768;1;13012;28.84;30.54;32,7;BCS1388054;4;16
009557;07.02.2022;08:50:52;Normalcharge  ;04.12.2018;FEY;;LION;49;14500;7200;192;2;57;57;8400;3000;3710;3710;1;13010;22.34;22.34;25,0;BCS1388054;5;12
009557;07.02.2022;13:22:36;Stop          ;04.12.2018;FEY;;LION;49;14500;7200;224;2;100;100;8400;;4162;4161;1;13004;26.44;25.64;28,5;BCS1388054;5;12