File: reader/backup_20220214/Batterieverzeichnis_new/009627.txt
Serialnumber ; Date ; Time ; Action ; Date of Manufacture ; Manufacturer ; Battery Name ; Device-Chemistry ; Specification-Info ; Design-Capacity [mAh] ; Design-Voltage [mV] ; Battery Status ; Cycle Count ; SOC [%] ; Relativ SOC[%] ; Desired Voltage [mV]; Desired Current [mA]; Cell Voltage 1 [mV] ; Cell Voltage 2 [mV] ; Max_Error [%] ; Busvoltage[mV] ; Battery Temperature [°C] ; Charger Temperature [°C] ; Batterysystem ; Case ; PLace
009627;10.12.2019;15:28:47;Ladung auf 30% ;03.12.2018;FEY;;LION;49;14500;7200;224;48;93;100;8400;;4131;4130;1;13008;22.44;24.74;27,1;BCS1388054;3;1
009627;10.12.2019;20:47:21;Stop           ;03.12.2018;FEY;;LION;49;14500;7200;192;49;29;30;8400;3000;3558;3558;1;13005;33.44;34.94;33,5;BCS1388054;3;1
009627;11.12.2019;08:48:36;Fastcharge    ;03.12.2018;FEY;;LION;49;14500;7200;192;49;29;30;8400;3000;3569;3569;1;13006;26.14;28.54;31,9;BCS1388054;3;1
009627;11.12.2019;13:39:41;Stop           ;03.12.2018;FEY;;LION;49;14500;7200;224;49;95;100;8400;;4163;4163;1;13006;29.84;31.44;32,5;BCS1388054;3;1
009627;11.12.2019;15:46:24;Ladung auf 10% ;03.12.2018;FEY;;LION;49;14500;7200;224;49;96;99;8400;;4153;4153;1;13006;26.94;29.24;31,4;BCS1388054;3;1
009627;11.12.2019;22:48:44;Stop           ;03.12.2018;FEY;;LION;49;14500;7200;192;50;10;10;8400;3000;3350;3351;1;13004;34.24;35.44;33,6;BCS1388054;3;1
009627;12.12.2019;08:44:58;Normalcharge  ;03.12.2018;FEY;;LION;49;14500;7200;192;50;9;9;8400;3000;3363;3364;1;13005;26.24;28.84;31,9;BCS1388054;3;1
009627;12.12.2019;16:39:24;Stop           ;03.12.2018;FEY;;LION;49;14500;7200;224;50;96;100;8400;;4162;4162;1;13005;29.04;30.84;31,7;BCS1388054;3;1
009627;13.12.2019;10:47:57;Ladung auf 10% ;03.12.2018;FEY;;LION;49;14500;7200;224;50;96;100;8400;;4148;4148;1;13006;26.34;28.84;32,0;BCS1388054;3;1
009627;13.12.2019;15:42:18;Stop           ;03.12.2018;FEY;;LION;49;14500;7200;192;51;35;36;8400;3000;3503;3554;1;13532;32.74;39.04;34,6;BCS1388054;3;1
009627;13.12.2019;15:42:20;Cycle          ;03.12.2018;FEY;;LION;49;14500;7200;192;51;35;36;8400;3000;3503;3554;1;13532;32.74;39.04;34,6;BCS1388054;3;1
009627;14.12.2019;22:36:33;Stop           ;03.12.2018;FEY;;LION;49;14500;7200;224;52;93;99;8400;;4151;4151;1;13006;26.44;28.64;31,6;BCS1388054;3;1
009627;16.12.2019;07:43:10;Ladung auf 10% ;03.12.2018;FEY;;LION;49;14500;7200;224;52;94;100;8400;;4145;4145;1;13006;26.04;28.34;31,9;BCS1388054;3;1
009627;16.12.2019;14:34:27;Stop           ;03.12.2018;FEY;;LION;49;14500;7200;192;53;10;10;8400;3000;3363;3365;1;13004;32.74;34.24;32,5;BCS1388054;3;1
009627;16.12.2019;14:44:07;Ladung auf 90% ;03.12.2018;FEY;;LION;49;14500;7200;192;53;10;10;8400;3000;3368;3368;1;13005;32.04;32.14;31,7;BCS1388054;3;1
009627;16.12.2019;20:48:39;Stop           ;03.12.2018;FEY;;LION;49;14500;7200;192;53;85;90;8400;3000;4064;4064;1;13007;31.64;33.24;31,9;BCS1388054;3;1
009627;17.12.2019;08:37:44;Fastcharge    ;03.12.2018;FEY;;LION;49;14500;7200;192;53;85;90;8400;3000;4049;4050;1;13005;26.14;28.54;31,5;BCS1388054;3;1
009627;17.12.2019;10:30:44;Stop           ;03.12.2018;FEY;;LION;49;14500;7200;224;53;95;100;8400;;4160;4160;1;13006;27.74;30.04;31,4;BCS1388054;3;1
009627;17.12.2019;13:38:28;Ladung auf 10% ;03.12.2018;FEY;;LION;49;14500;7200;224;53;95;100;8400;;4149;4149;1;13008;26.44;28.74;30,8;BCS1388054;3;1
009627;17.12.2019;20:32:04;Stop           ;03.12.2018;FEY;;LION;49;14500;7200;192;55;10;10;8400;3000;3365;3366;1;13005;34.14;35.34;34,6;BCS1388054;3;1
009627;18.12.2019;08:31:22;Fastcharge    ;03.12.2018;FEY;;LION;49;14500;7200;192;55;11;12;8400;3000;3376;3377;1;13006;26.24;28.74;31,6;BCS1388054;3;1
009627;18.12.2019;14:26:33;Stop           ;03.12.2018;FEY;;LION;49;14500;7200;224;55;95;100;8400;;4162;4163;1;13005;29.94;31.34;32,5;BCS1388054;3;1
009627;19.12.2019;08:23:54;Ladung auf 60% ;03.12.2018;FEY;;LION;49;14500;7200;224;55;96;100;8400;;4149;4150;1;13006;26.14;28.54;31,6;BCS1388054;3;1
009627;19.12.2019;11:28:29;Stop           ;03.12.2018;FEY;;LION;49;14500;7200;192;55;58;60;8400;3000;3760;3763;1;13004;33.94;38.14;35,1;BCS1388054;3;1
009627;19.12.2019;12:16:41;Cycle          ;03.12.2018;FEY;;LION;49;14500;7200;192;55;58;60;8400;3000;3780;3783;1;13005;30.34;31.04;32,7;BCS1388054;3;1
009627;20.12.2019;17:23:28;Stop           ;03.12.2018;FEY;;LION;49;14500;7200;224;56;94;100;8400;;4151;4151;1;13005;26.54;28.94;31,9;BCS1388054;3;1
009627;06.01.2020;06:34:46;Ladung auf 60% ;03.12.2018;FEY;;LION;49;14500;7200;192;56;93;98;8400;;4122;4122;1;13006;26.24;28.64;31,9;BCS1388054;3;1
009627;06.01.2020;09:29:20;Stop           ;03.12.2018;FEY;;LION;49;14500;7200;192;57;57;60;8400;3000;3773;3774;1;13007;33.04;35.54;34,2;BCS1388054;3;1
009627;06.01.2020;09:50:34;Fastcharge    ;03.12.2018;FEY;;LION;49;14500;7200;192;57;57;60;8400;3000;3784;3786;1;13006;31.54;31.84;32,7;BCS1388054;3;1
009627;06.01.2020;13:06:26;Stop           ;03.12.2018;FEY;;LION;49;14500;7200;224;57;95;100;8400;;4160;4161;1;13007;29.44;31.04;32,1;BCS1388054;3;1