File: reader/backup_20220214/Batterieverzeichnis_new/009637.txt
Serialnumber ; Date ; Time ; Action ; Date of Manufacture ; Manufacturer ; Battery Name ; Device-Chemistry ; Specification-Info ; Design-Capacity [mAh] ; Design-Voltage [mV] ; Battery Status ; Cycle Count ; SOC [%] ; Relativ SOC[%] ; Desired Voltage [mV]; Desired Current [mA]; Cell Voltage 1 [mV] ; Cell Voltage 2 [mV] ; Max_Error [%] ; Busvoltage[mV] ; Battery Temperature [°C] ; Charger Temperature [°C] ; Batterysystem ; Case ; PLace
009637;10.12.2019;15:28:47;Ladung auf 30% ;04.12.2018;FEY;;LION;49;14500;7200;224;47;93;100;8400;;4132;4132;1;12998;22.84;24.94;27,1;BCS1388054;3;8
009637;10.12.2019;20:47:21;Stop           ;04.12.2018;FEY;;LION;49;14500;7200;192;48;29;30;8400;3000;3558;3559;1;12997;34.54;35.04;33,5;BCS1388054;3;8
009637;11.12.2019;08:48:36;Fastcharge    ;04.12.2018;FEY;;LION;49;14500;7200;192;48;29;30;8400;3000;3567;3568;1;12996;26.64;28.64;31,9;BCS1388054;3;8
009637;11.12.2019;13:39:41;Stop           ;04.12.2018;FEY;;LION;49;14500;7200;224;48;94;100;8400;;4161;4161;1;12996;31.34;31.54;32,5;BCS1388054;3;8
009637;11.12.2019;15:46:24;Ladung auf 10% ;04.12.2018;FEY;;LION;49;14500;7200;224;48;96;100;8400;;4154;4153;1;12997;27.74;29.04;31,4;BCS1388054;3;8
009637;11.12.2019;22:48:44;Stop           ;04.12.2018;FEY;;LION;49;14500;7200;192;49;10;10;8400;3000;3354;3356;1;12996;35.44;35.24;33,6;BCS1388054;3;8
009637;12.12.2019;08:44:58;Normalcharge  ;04.12.2018;FEY;;LION;49;14500;7200;192;49;9;9;8400;3000;3364;3365;1;12996;26.84;28.74;31,9;BCS1388054;3;8
009637;12.12.2019;16:39:24;Stop           ;04.12.2018;FEY;;LION;49;14500;7200;224;49;95;100;8400;;4161;4163;1;12996;30.24;30.94;31,7;BCS1388054;3;8
009637;13.12.2019;10:47:57;Ladung auf 10% ;04.12.2018;FEY;;LION;49;14500;7200;224;49;95;100;8400;;4149;4150;1;12997;26.84;28.84;32,0;BCS1388054;3;8
009637;13.12.2019;15:42:18;Stop           ;04.12.2018;FEY;;LION;49;14500;7200;192;50;35;36;8400;3000;3499;3553;1;13536;33.94;39.54;34,6;BCS1388054;3;8
009637;13.12.2019;15:42:20;Cycle          ;04.12.2018;FEY;;LION;49;14500;7200;192;50;35;36;8400;3000;3499;3553;1;13536;33.94;39.54;34,6;BCS1388054;3;8
009637;14.12.2019;22:36:33;Stop           ;04.12.2018;FEY;;LION;49;14500;7200;224;51;92;99;8400;;4152;4152;1;12997;27.14;28.74;31,6;BCS1388054;3;8
009637;16.12.2019;07:43:10;Ladung auf 10% ;04.12.2018;FEY;;LION;49;14500;7200;224;51;93;100;8400;;4146;4146;1;12999;26.64;28.24;31,9;BCS1388054;3;8
009637;16.12.2019;14:34:27;Stop           ;04.12.2018;FEY;;LION;49;14500;7200;192;52;10;10;8400;3000;3364;3366;1;12998;33.84;34.14;32,5;BCS1388054;3;8
009637;16.12.2019;14:44:07;Ladung auf 90% ;04.12.2018;FEY;;LION;49;14500;7200;192;52;10;10;8400;3000;3366;3369;1;12998;33.14;32.34;31,7;BCS1388054;3;8
009637;16.12.2019;20:48:39;Stop           ;04.12.2018;FEY;;LION;49;14500;7200;192;52;84;90;8400;3000;4054;4057;1;12998;32.94;33.14;31,9;BCS1388054;3;8
009637;17.12.2019;08:37:44;Fastcharge    ;04.12.2018;FEY;;LION;49;14500;7200;192;52;84;90;8400;3000;4045;4047;1;12998;26.74;28.54;31,5;BCS1388054;3;8
009637;17.12.2019;10:30:44;Stop           ;04.12.2018;FEY;;LION;49;14500;7200;224;52;94;100;8400;;4160;4160;1;12998;28.64;30.24;31,4;BCS1388054;3;8
009637;17.12.2019;13:38:28;Ladung auf 10% ;04.12.2018;FEY;;LION;49;14500;7200;224;52;94;100;8400;;4150;4150;1;12997;27.04;28.64;30,8;BCS1388054;3;8
009637;17.12.2019;20:32:04;Stop           ;04.12.2018;FEY;;LION;49;14500;7200;192;53;10;10;8400;3000;3362;3364;1;12996;35.44;35.74;34,6;BCS1388054;3;8
009637;18.12.2019;08:31:22;Fastcharge    ;04.12.2018;FEY;;LION;49;14500;7200;192;53;10;10;8400;3000;3372;3374;1;12998;26.84;28.64;31,6;BCS1388054;3;8
009637;18.12.2019;14:26:33;Stop           ;04.12.2018;FEY;;LION;49;14500;7200;224;53;94;100;8400;;4161;4161;1;12997;31.44;31.64;32,5;BCS1388054;3;8
009637;19.12.2019;08:23:54;Ladung auf 60% ;04.12.2018;FEY;;LION;49;14500;7200;224;53;95;100;8400;;4149;4149;1;12997;26.74;28.44;31,6;BCS1388054;3;8
009637;19.12.2019;11:28:29;Stop           ;04.12.2018;FEY;;LION;49;14500;7200;192;54;57;60;8400;3000;3762;3765;1;12996;35.04;37.14;35,1;BCS1388054;3;8
009637;19.12.2019;12:16:41;Cycle          ;04.12.2018;FEY;;LION;49;14500;7200;192;54;57;60;8400;3000;3775;3778;1;12997;31.74;31.34;32,7;BCS1388054;3;8
009637;20.12.2019;17:23:28;Stop           ;04.12.2018;FEY;;LION;49;14500;7200;224;55;93;100;8400;;4152;4153;1;12997;27.34;28.84;31,9;BCS1388054;3;8
009637;06.01.2020;06:34:46;Ladung auf 60% ;04.12.2018;FEY;;LION;49;14500;7200;224;55;92;99;8400;;4123;4123;1;12999;26.84;28.54;31,9;BCS1388054;3;8
009637;06.01.2020;09:29:20;Stop           ;04.12.2018;FEY;;LION;49;14500;7200;192;55;56;60;8400;3000;3764;3767;1;12998;34.14;35.74;34,2;BCS1388054;3;8
009637;06.01.2020;09:50:34;Fastcharge    ;04.12.2018;FEY;;LION;49;14500;7200;192;55;56;60;8400;3000;3773;3777;1;12996;32.74;32.04;32,7;BCS1388054;3;8
009637;06.01.2020;13:06:26;Stop           ;04.12.2018;FEY;;LION;49;14500;7200;224;55;94;100;8400;;4160;4160;1;12998;30.94;31.14;32,1;BCS1388054;3;8