File: reader/backup_20220214/Batterieverzeichnis_new/009768.txt
Serialnumber ; Date ; Time ; Action ; Date of Manufacture ; Manufacturer ; Battery Name ; Device-Chemistry ; Specification-Info ; Design-Capacity [mAh] ; Design-Voltage [mV] ; Battery Status ; Cycle Count ; SOC [%] ; Relativ SOC[%] ; Desired Voltage [mV]; Desired Current [mA]; Cell Voltage 1 [mV] ; Cell Voltage 2 [mV] ; Max_Error [%] ; Busvoltage[mV] ; Battery Temperature [°C] ; Charger Temperature [°C] ; Batterysystem ; Case ; PLace
009768;07.12.2020;04:14:32;Cycle         ;04.12.2018;FEY;;LION;49;14500;7200;16576;3;97;98;;;4144;4145;1;13010;25.84;27.64;30,3;BCS1388054;5;8
009768;08.12.2020;16:20:01;Stop          ;04.12.2018;FEY;;LION;49;14500;7200;16576;3;97;98;;;4141;4143;1;13010;28.04;29.24;31,7;BCS1388054;5;8
009768;07.02.2021;08:46:43;Normalcharge  ;04.12.2018;FEY;;LION;49;14500;7200;16576;3;95;97;;;4120;4121;1;13014;23.64;25.54;29,2;BCS1388054;1;16
009768;07.02.2021;11:52:07;Stop          ;04.12.2018;FEY;;LION;49;14500;7200;16576;3;95;97;;;4120;4121;1;13016;25.84;26.74;29,7;BCS1388054;1;16
009768;03.03.2021;08:17:46;Normalcharge  ;04.12.2018;FEY;;LION;49;14500;7200;192;4;65;66;8400;3000;3829;3830;1;13030;23.24;23.34;23,6;BCS1388054;7;2
009768;03.03.2021;10:54:05;Stop          ;04.12.2018;FEY;;LION;49;14500;7200;128;4;96;97;8400;3000;4180;4158;1;12720;29.94;33.84;31,4;BCS1388054;7;2
009768;03.03.2021;10:55:49;Normalcharge  ;04.12.2018;FEY;;LION;49;14500;7200;192;4;96;97;8400;3000;4127;4129;1;13026;29.84;31.54;30,6;BCS1388054;7;2
009768;03.03.2021;17:03:24;Stop          ;04.12.2018;FEY;;LION;49;14500;7200;224;4;99;100;8400;;4153;4156;1;13027;26.34;28.14;31,4;BCS1388054;7;2
009768;04.04.2021;11:49:55;Normalcharge  ;04.12.2018;FEY;;LION;49;14500;7200;192;4;55;57;8400;3000;3714;3716;1;13029;25.14;25.34;27,5;BCS1388054;7;13
009768;04.04.2021;11:51:17;Stop          ;04.12.2018;FEY;;LION;49;14500;7200;128;4;55;57;8400;3000;3802;3759;1;12744;25.24;28.84;28,4;BCS1388054;7;13
009768;05.04.2021;09:37:37;Charge to 60% ;04.12.2018;FEY;;LION;49;14500;7200;192;4;55;57;8400;3000;3717;3719;1;12994;25.14;25.44;26,0;BCS1388054;1;11
009768;05.04.2021;10:01:53;Stop          ;04.12.2018;FEY;;LION;49;14500;7200;192;4;58;60;8400;3000;3763;3768;1;12991;26.54;27.24;31,2;BCS1388054;1;11
009768;22.08.2021;11:08:18;Normalcharge  ;04.12.2018;FEY;;LION;49;14500;7200;192;4;55;57;8400;3000;3706;3708;1;13025;30.04;30.04;32,2;BCS1388054;7;4
009768;22.08.2021;11:08:50;Stop          ;04.12.2018;FEY;;LION;49;14500;7200;128;4;55;57;8400;3000;3736;3722;1;12845;30.04;31.44;32,6;BCS1388054;7;4
009768;25.08.2021;08:15:19;Charge to 60% ;04.12.2018;FEY;;LION;49;14500;7200;192;4;55;57;8400;3000;3706;3708;1;12993;30.34;33.14;33,5;BCS1388054;2;3
009768;25.08.2021;10:43:16;Stop          ;04.12.2018;FEY;;LION;49;14500;7200;192;4;58;60;8400;3000;3743;3745;1;12994;32.74;35.54;36,4;BCS1388054;2;3
009768;01.11.2021;09:51:48;Normalcharge  ;04.12.2018;FEY;;LION;49;14500;7200;192;4;55;57;8400;3000;3715;3717;1;13030;26.04;26.54;26,3;BCS1388054;7;8
009768;01.11.2021;09:53:51;Stop          ;04.12.2018;FEY;;LION;49;14500;7200;128;4;55;57;8400;3000;3809;3764;1;12679;26.14;30.74;27,4;BCS1388054;7;8
009768;01.11.2021;10:02:29;Normalcharge  ;04.12.2018;FEY;;LION;49;14500;7200;192;4;55;57;8400;3000;3719;3721;1;13024;26.24;28.74;29,5;BCS1388054;7;8
009768;01.11.2021;10:03:04;Stop          ;04.12.2018;FEY;;LION;49;14500;7200;128;4;55;57;8400;3000;3778;3749;1;12722;26.24;29.84;29,3;BCS1388054;7;8
009768;01.11.2021;10:27:23;Normalcharge  ;04.12.2018;FEY;;LION;49;14500;7200;192;4;55;57;8400;3000;3720;3722;1;13028;26.44;27.54;27,7;BCS1388054;7;8
009768;01.11.2021;10:29:22;Stop          ;04.12.2018;FEY;;LION;49;14500;7200;128;4;56;57;8400;3000;3815;3770;1;12675;26.44;31.44;28,6;BCS1388054;7;8
009768;01.11.2021;10:32:51;Charge to 60% ;04.12.2018;FEY;;LION;49;14500;7200;192;4;56;57;8400;3000;3725;3727;1;13026;26.54;29.24;29,7;BCS1388054;7;8
009768;01.11.2021;11:46:27;Stop          ;04.12.2018;FEY;;LION;49;14500;7200;192;4;58;60;8400;3000;3753;3755;1;13025;28.14;30.14;32,5;BCS1388054;7;8
009768;07.02.2022;08:50:57;Normalcharge  ;04.12.2018;FEY;;LION;49;14500;7200;192;4;56;58;8400;3000;3714;3716;1;13012;22.24;22.54;25,1;BCS1388054;4;12
009768;07.02.2022;13:19:09;Stop          ;04.12.2018;FEY;;LION;49;14500;7200;224;4;98;100;8400;;4161;4162;1;13009;26.64;26.14;29,7;BCS1388054;4;12