File: reader/backup_20220214/Batterieverzeichnis_new/009709.txt
Serialnumber ; Date ; Time ; Action ; Date of Manufacture ; Manufacturer ; Battery Name ; Device-Chemistry ; Specification-Info ; Design-Capacity [mAh] ; Design-Voltage [mV] ; Battery Status ; Cycle Count ; SOC [%] ; Relativ SOC[%] ; Desired Voltage [mV]; Desired Current [mA]; Cell Voltage 1 [mV] ; Cell Voltage 2 [mV] ; Max_Error [%] ; Busvoltage[mV] ; Battery Temperature [°C] ; Charger Temperature [°C] ; Batterysystem ; Case ; PLace
009709;07.12.2020;04:14:32;Cycle         ;04.12.2018;FEY;;LION;49;14500;7200;192;4;96;98;8400;;4143;4142;1;13010;26.04;28.24;30,3;BCS1388054;5;5
009709;08.12.2020;16:20:01;Stop          ;04.12.2018;FEY;;LION;49;14500;7200;192;4;96;98;8400;;4141;4140;1;13010;28.04;29.64;31,7;BCS1388054;5;5
009709;12.01.2021;04:17:47;Charge to 90% ;04.12.2018;FEY;;LION;49;14500;7200;192;4;95;97;8400;;4126;4125;1;13030;23.24;23.24;23,8;BCS1388054;7;13
009709;12.01.2021;04:57:20;Stop          ;04.12.2018;FEY;;LION;49;14500;7200;192;4;90;90;8400;3000;4060;4059;1;13025;26.84;29.44;31,5;BCS1388054;7;13
009709;12.01.2021;05:22:01;Cycle         ;04.12.2018;FEY;;LION;49;14500;7200;192;4;90;90;8400;3000;4065;4065;1;13026;27.04;27.84;30,4;BCS1388054;7;13
009709;13.01.2021;08:19:29;Stop          ;04.12.2018;FEY;;LION;49;14500;7200;224;5;97;100;8400;;4155;4154;1;13027;26.94;27.64;30,7;BCS1388054;7;13
009709;22.02.2021;17:31:46;Normalcharge  ;04.12.2018;FEY;;LION;49;14500;7200;192;5;71;73;8400;3000;3880;3880;1;12995;26.64;28.24;31,6;BCS1388054;1;15
009709;22.02.2021;23:06:28;Stop          ;04.12.2018;FEY;;LION;49;14500;7200;224;5;97;100;8400;;4152;4151;1;12997;27.04;29.44;30,6;BCS1388054;1;15
009709;04.04.2021;11:50:33;Normalcharge  ;04.12.2018;FEY;;LION;49;14500;7200;192;6;58;60;8400;3000;3751;3750;1;13003;25.24;26.24;27,9;BCS1388054;2;14
009709;04.04.2021;11:51:48;Stop          ;04.12.2018;FEY;;LION;49;14500;7200;128;6;58;60;8400;3000;3844;3796;1;12588;25.24;29.44;28,6;BCS1388054;2;14
009709;05.04.2021;09:37:37;Charge to 60% ;04.12.2018;FEY;;LION;49;14500;7200;192;6;58;60;8400;3000;3755;3753;1;13009;25.44;26.64;26,0;BCS1388054;1;6
009709;05.04.2021;10:01:53;Stop          ;04.12.2018;FEY;;LION;49;14500;7200;192;6;58;60;8400;3000;3754;3753;1;13004;26.14;28.14;31,2;BCS1388054;1;6
009709;22.08.2021;11:08:18;Normalcharge  ;04.12.2018;FEY;;LION;49;14500;7200;192;6;55;57;8400;3000;3708;3708;1;13021;30.14;29.94;32,2;BCS1388054;7;6
009709;22.08.2021;11:08:51;Stop          ;04.12.2018;FEY;;LION;49;14500;7200;128;6;55;57;8400;3000;3739;3720;1;12837;30.14;31.04;32,6;BCS1388054;7;6
009709;25.08.2021;08:15:02;Charge to 60% ;04.12.2018;FEY;;LION;49;14500;7200;192;6;55;57;8400;3000;3708;3708;1;13010;30.64;31.44;33,2;BCS1388054;5;17
009709;25.08.2021;13:03:31;Stop          ;04.12.2018;FEY;;LION;49;14500;7200;192;6;58;60;8400;3000;3745;3745;1;13006;32.94;33.94;36,6;BCS1388054;5;17
009709;01.11.2021;10:18:16;Normalcharge  ;04.12.2018;FEY;;LION;49;14500;7200;192;6;55;57;8400;3000;3716;3716;1;13006;26.24;26.54;28,2;BCS1388054;3;9
009709;01.11.2021;10:18:56;Stop           ;04.12.2018;FEY;;LION;49;14500;7200;128;6;55;57;8400;3000;3795;3750;1;12621;26.24;28.04;28,2;BCS1388054;3;9
009709;01.11.2021;10:27:50;Normalcharge  ;04.12.2018;FEY;;LION;49;14500;7200;192;6;55;57;8400;3000;3717;3717;1;13005;26.24;26.74;27,8;BCS1388054;3;9
009709;01.11.2021;10:29:05;Stop           ;04.12.2018;FEY;;LION;49;14500;7200;128;6;55;57;8400;3000;3808;3761;1;12571;26.24;29.54;28,5;BCS1388054;3;9
009709;01.11.2021;10:32:24;Ladung auf 60% ;04.12.2018;FEY;;LION;49;14500;7200;192;6;55;57;8400;3000;3721;3721;1;13000;26.24;27.74;29,7;BCS1388054;3;9
009709;01.11.2021;15:19:46;Stop           ;04.12.2018;FEY;;LION;49;14500;7200;192;6;58;60;8400;3000;3751;3751;1;13000;29.34;30.14;32,7;BCS1388054;3;9
009709;09.02.2022;08:16:56;Normalcharge  ;04.12.2018;FEY;;LION;49;14500;7200;192;6;55;57;8400;3000;3714;3714;1;13001;22.84;22.44;23,1;BCS1388054;2;13
009709;09.02.2022;12:43:52;Stop          ;04.12.2018;FEY;;LION;49;14500;7200;224;6;97;100;8400;;4160;4160;1;12994;26.44;27.14;29,9;BCS1388054;2;13