File: reader/backup_20220214/Batterieverzeichnis_new/009754.txt
Serialnumber ; Date ; Time ; Action ; Date of Manufacture ; Manufacturer ; Battery Name ; Device-Chemistry ; Specification-Info ; Design-Capacity [mAh] ; Design-Voltage [mV] ; Battery Status ; Cycle Count ; SOC [%] ; Relativ SOC[%] ; Desired Voltage [mV]; Desired Current [mA]; Cell Voltage 1 [mV] ; Cell Voltage 2 [mV] ; Max_Error [%] ; Busvoltage[mV] ; Battery Temperature [°C] ; Charger Temperature [°C] ; Batterysystem ; Case ; PLace
009754;01.12.2020;07:00:16;Cycle         ;04.12.2018;FEY;;LION;49;14500;7200;16576;2;98;100;;;4165;4166;1;12996;25.64;25.64;26,7;BCS1388054;1;2
009754;01.12.2020;11:17:17;Stop          ;04.12.2018;FEY;;LION;49;14500;7200;16576;2;98;100;;;4165;4166;1;12991;26.94;28.84;28,8;BCS1388054;1;2
009754;07.02.2021;08:46:54;Normalcharge  ;04.12.2018;FEY;;LION;49;14500;7200;16576;2;93;95;;;4100;4100;1;13009;23.74;26.44;29,2;BCS1388054;3;13
009754;07.02.2021;11:52:16;Stop           ;04.12.2018;FEY;;LION;49;14500;7200;16576;2;93;95;;;4100;4100;1;13010;26.04;28.24;29,7;BCS1388054;3;13
009754;03.03.2021;08:17:29;Normalcharge  ;04.12.2018;FEY;;LION;49;14500;7200;192;2;84;86;8400;3000;4006;4007;1;13021;23.34;23.94;23,5;BCS1388054;4;16
009754;03.03.2021;10:32:46;Stop          ;04.12.2018;FEY;;LION;49;14500;7200;224;2;98;100;8400;;4157;4158;1;13016;28.44;29.64;32,0;BCS1388054;4;16
009754;04.04.2021;11:50:10;Normalcharge  ;04.12.2018;FEY;;LION;49;14500;7200;192;3;51;53;8400;3000;3680;3680;1;13013;25.04;26.94;27,8;BCS1388054;5;15
009754;04.04.2021;11:51:30;Stop          ;04.12.2018;FEY;;LION;49;14500;7200;128;3;51;54;8400;3000;3770;3720;1;12671;25.14;30.04;28,5;BCS1388054;5;15
009754;05.04.2021;09:38:11;Charge to 60% ;04.12.2018;FEY;;LION;49;14500;7200;192;3;51;54;8400;3000;3682;3682;1;13007;25.24;25.64;26,3;BCS1388054;4;17
009754;05.04.2021;10:13:52;Stop          ;04.12.2018;FEY;;LION;49;14500;7200;192;3;57;60;8400;3000;3751;3753;1;13003;27.74;29.84;32,1;BCS1388054;4;17
009754;22.08.2021;11:37:30;Normalcharge  ;04.12.2018;FEY;;LION;49;14500;7200;192;3;53;55;8400;3000;3695;3695;1;13000;21.84;29.34;31,9;BCS1388054;3;13
009754;22.08.2021;11:38:19;Stop           ;04.12.2018;FEY;;LION;49;14500;7200;128;3;53;55;8400;3000;3779;3733;1;12570;22.04;31.54;32,1;BCS1388054;3;13
009754;25.08.2021;08:15:15;Ladung auf 60% ;04.12.2018;FEY;;LION;49;14500;7200;192;3;53;55;8400;3000;3697;3697;1;12997;30.64;32.74;33,4;BCS1388054;3;13
009754;25.08.2021;08:40:44;Stop           ;04.12.2018;FEY;;LION;49;14500;7200;192;3;57;60;8400;3000;3751;3753;1;12997;32.64;36.74;36,1;BCS1388054;3;13
009754;01.11.2021;09:52:00;Normalcharge  ;04.12.2018;FEY;;LION;49;14500;7200;192;3;54;57;8400;3000;3715;3715;1;13011;25.94;26.04;26,3;BCS1388054;5;4
009754;01.11.2021;09:53:40;Stop          ;04.12.2018;FEY;;LION;49;14500;7200;128;3;54;57;8400;3000;3811;3759;1;12601;26.04;29.84;27,3;BCS1388054;5;4
009754;01.11.2021;10:02:19;Normalcharge  ;04.12.2018;FEY;;LION;49;14500;7200;192;3;54;57;8400;3000;3719;3720;1;13007;26.14;27.94;29,5;BCS1388054;5;4
009754;01.11.2021;10:03:11;Stop          ;04.12.2018;FEY;;LION;49;14500;7200;128;3;55;57;8400;3000;3807;3759;1;12596;26.14;29.84;29,3;BCS1388054;5;4
009754;01.11.2021;10:27:35;Normalcharge  ;04.12.2018;FEY;;LION;49;14500;7200;192;3;55;57;8400;3000;3720;3721;1;13004;26.44;26.74;27,8;BCS1388054;5;4
009754;01.11.2021;10:29:14;Stop          ;04.12.2018;FEY;;LION;49;14500;7200;128;3;55;57;8400;3000;3814;3767;1;12592;26.44;30.54;28,6;BCS1388054;5;4
009754;01.11.2021;10:32:33;Charge to 60% ;04.12.2018;FEY;;LION;49;14500;7200;192;3;55;57;8400;3000;3725;3726;1;13006;26.54;28.44;29,9;BCS1388054;5;4
009754;01.11.2021;11:11:47;Stop          ;04.12.2018;FEY;;LION;49;14500;7200;192;3;57;60;8400;3000;3755;3756;1;13005;27.84;29.54;32,5;BCS1388054;5;4
009754;07.02.2022;08:51:04;Normalcharge  ;04.12.2018;FEY;;LION;49;14500;7200;192;3;55;57;8400;3000;3712;3713;1;13007;22.44;21.64;25,1;BCS1388054;3;11
009754;07.02.2022;14:32:56;Stop           ;04.12.2018;FEY;;LION;49;14500;7200;224;3;96;100;8400;;4155;4157;1;13002;25.64;24.94;30,8;BCS1388054;3;11