File: reader/backup_20220214/Batterieverzeichnis_new/009789.txt
Serialnumber ; Date ; Time ; Action ; Date of Manufacture ; Manufacturer ; Battery Name ; Device-Chemistry ; Specification-Info ; Design-Capacity [mAh] ; Design-Voltage [mV] ; Battery Status ; Cycle Count ; SOC [%] ; Relativ SOC[%] ; Desired Voltage [mV]; Desired Current [mA]; Cell Voltage 1 [mV] ; Cell Voltage 2 [mV] ; Max_Error [%] ; Busvoltage[mV] ; Battery Temperature [°C] ; Charger Temperature [°C] ; Batterysystem ; Case ; PLace
009789;07.12.2020;04:14:40;Cycle         ;04.12.2018;FEY;;LION;49;14500;7200;192;2;94;95;8400;3000;4101;4103;1;13022;25.74;27.44;30,3;BCS1388054;7;13
009789;08.12.2020;16:20:20;Stop          ;04.12.2018;FEY;;LION;49;14500;7200;224;3;97;100;8400;;4154;4156;1;13024;27.74;28.94;31,9;BCS1388054;7;13
009789;21.02.2021;13:43:19;Normalcharge  ;04.12.2018;FEY;;LION;49;14500;7200;192;3;91;95;8400;3000;4088;4089;1;13000;23.74;24.44;27,5;BCS1388054;1;10
009789;22.02.2021;17:08:49;Stop          ;04.12.2018;FEY;;LION;49;14500;7200;224;3;97;100;8400;;4148;4150;1;12999;26.14;26.14;30,0;BCS1388054;1;10
009789;06.04.2021;08:39:10;Normalcharge  ;04.12.2018;FEY;;LION;49;14500;7200;224;3;95;99;8400;;4128;4129;1;13017;21.94;25.14;28,1;BCS1388054;5;9
009789;06.04.2021;08:39:58;Stop          ;04.12.2018;FEY;;LION;49;14500;7200;224;3;95;99;8400;;4128;4129;1;13018;21.94;25.44;28,4;BCS1388054;5;9
009789;08.04.2021;07:58:30;Normalcharge  ;04.12.2018;FEY;;LION;49;14500;7200;224;3;95;99;8400;;4127;4128;1;13019;25.34;25.34;26,4;BCS1388054;5;9
009789;08.04.2021;07:59:28;Stop          ;04.12.2018;FEY;;LION;49;14500;7200;224;3;95;99;8400;;4127;4128;1;13020;25.34;25.84;26,7;BCS1388054;5;9
009789;08.04.2021;10:36:12;Normalcharge  ;04.12.2018;FEY;;LION;49;14500;7200;224;3;95;99;8400;;4127;4129;1;13018;25.44;26.14;28,6;BCS1388054;5;9
009789;08.04.2021;10:37:06;Stop          ;04.12.2018;FEY;;LION;49;14500;7200;224;3;95;99;8400;;4127;4129;1;13018;25.54;26.54;29,0;BCS1388054;5;9
009789;18.04.2021;08:34:16;Normalcharge  ;04.12.2018;FEY;;LION;49;14500;7200;224;3;95;99;8400;;4123;4124;1;13012;26.24;26.94;28,1;BCS1388054;5;9
009789;18.04.2021;08:34:27;Stop          ;04.12.2018;FEY;;LION;49;14500;7200;224;3;95;99;8400;;4123;4124;1;13012;26.24;27.04;28,2;BCS1388054;5;9
009789;04.08.2021;07:24:41;Normalcharge  ;04.12.2018;FEY;;LION;49;14500;7200;192;3;93;96;8400;;4090;4091;1;13009;30.24;30.74;31,5;BCS1388054;5;9
009789;04.08.2021;07:25:23;Stop          ;04.12.2018;FEY;;LION;49;14500;7200;192;3;93;96;8400;;4090;4091;1;13008;30.24;31.04;31,6;BCS1388054;5;9
009789;22.08.2021;11:37:17;Normalcharge  ;04.12.2018;FEY;;LION;49;14500;7200;192;3;91;95;8400;3000;4085;4086;1;12991;22.54;28.54;31,9;BCS1388054;6;7
009789;22.08.2021;11:37:57;Stop          ;04.12.2018;FEY;;LION;49;14500;7200;128;3;91;95;8400;3000;4104;4098;1;12863;22.64;29.84;32,0;BCS1388054;6;7
009789;12.10.2021;12:15:20;Normalcharge  ;04.12.2018;FEY;;LION;49;14500;7200;192;3;91;94;8400;3000;4071;4073;1;13003;24.04;26.14;27,9;BCS1388054;1;17
009789;12.10.2021;12:15:34;Stop          ;04.12.2018;FEY;;LION;49;14500;7200;192;3;91;94;8400;3000;4071;4072;1;12987;24.14;26.44;27,9;BCS1388054;1;17
009789;14.10.2021;12:40:08;Normalcharge  ;04.12.2018;FEY;;LION;49;14500;7200;192;3;86;90;8400;3000;4035;4036;1;13001;25.34;26.14;27,9;BCS1388054;4;15
009789;14.10.2021;12:41:44;Stop          ;04.12.2018;FEY;;LION;49;14500;7200;128;3;86;90;8400;3000;4112;4079;1;12656;25.44;29.54;28,4;BCS1388054;4;15
009789;28.12.2021;09:01:33;Normalcharge  ;04.12.2018;FEY;;LION;49;14500;7200;192;3;73;76;8400;3000;3893;3893;1;12994;23.64;23.84;25,4;BCS1388054;5;13
009789;28.12.2021;09:02:46;Stop          ;04.12.2018;FEY;;LION;49;14500;7200;128;3;73;76;8400;3000;3984;3938;1;12647;23.74;27.24;26,0;BCS1388054;5;13
009789;07.02.2022;08:50:47;Normalcharge  ;04.12.2018;FEY;;LION;49;14500;7200;192;3;73;76;8400;3000;3886;3886;1;12995;22.34;22.74;25,0;BCS1388054;6;13