File: reader/backup_20220214/Batterieverzeichnis_new/009802.txt
Serialnumber ; Date ; Time ; Action ; Date of Manufacture ; Manufacturer ; Battery Name ; Device-Chemistry ; Specification-Info ; Design-Capacity [mAh] ; Design-Voltage [mV] ; Battery Status ; Cycle Count ; SOC [%] ; Relativ SOC[%] ; Desired Voltage [mV]; Desired Current [mA]; Cell Voltage 1 [mV] ; Cell Voltage 2 [mV] ; Max_Error [%] ; Busvoltage[mV] ; Battery Temperature [°C] ; Charger Temperature [°C] ; Batterysystem ; Case ; PLace
009802;07.02.2021;08:46:48;Normalcharge  ;03.12.2018;FEY;;LION;49;14500;7200;192;3;96;97;8400;;4114;4115;1;13003;23.04;26.84;29,2;BCS1388054;2;3
009802;07.02.2021;11:52:12;Stop          ;03.12.2018;FEY;;LION;49;14500;7200;192;3;96;97;8400;;4114;4115;1;13005;25.24;28.24;29,7;BCS1388054;2;3
009802;03.03.2021;08:17:46;Normalcharge  ;03.12.2018;FEY;;LION;49;14500;7200;2768;4;;;8400;3000;3037;3061;1;13030;22.54;23.14;23,6;BCS1388054;7;18
009802;03.03.2021;10:54:05;Stop          ;03.12.2018;FEY;;LION;49;14500;7200;128;4;30;32;8400;3000;3677;3627;1;12690;28.74;36.34;31,4;BCS1388054;7;18
009802;09.03.2021;08:06:57;Normalcharge  ;03.12.2018;FEY;;LION;49;14500;7200;192;4;34;35;8400;3000;3582;3583;1;12997;22.64;23.44;23,9;BCS1388054;1;1
009802;09.03.2021;08:07:09;Stop          ;03.12.2018;FEY;;LION;49;14500;7200;192;4;34;35;8400;3000;3582;3583;1;12998;22.64;23.54;24,1;BCS1388054;1;1
009802;06.04.2021;08:39:21;Normalcharge  ;03.12.2018;FEY;;LION;49;14500;7200;192;4;75;77;8400;3000;3897;3897;1;13022;20.44;25.34;28,1;BCS1388054;7;10
009802;06.04.2021;08:40:08;Stop          ;03.12.2018;FEY;;LION;49;14500;7200;128;4;75;77;8400;3000;3962;3928;1;12936;20.54;27.14;28,5;BCS1388054;7;10
009802;08.04.2021;07:59:03;Normalcharge  ;03.12.2018;FEY;;LION;49;14500;7200;192;4;75;77;8400;3000;3897;3897;1;13022;24.54;25.64;26,4;BCS1388054;7;10
009802;08.04.2021;07:59:16;Stop          ;03.12.2018;FEY;;LION;49;14500;7200;192;4;75;77;8400;3000;3897;3897;1;13021;24.54;25.94;26,6;BCS1388054;7;10
009802;08.04.2021;10:36:43;Normalcharge  ;03.12.2018;FEY;;LION;49;14500;7200;192;4;75;77;8400;3000;3897;3897;1;13020;24.74;26.54;28,9;BCS1388054;7;10
009802;08.04.2021;10:37:15;Stop          ;03.12.2018;FEY;;LION;49;14500;7200;128;4;75;77;8400;3000;3933;3913;1;12952;24.74;27.64;29,2;BCS1388054;7;10
009802;18.04.2021;08:34:46;Normalcharge  ;03.12.2018;FEY;;LION;49;14500;7200;192;4;75;77;8400;3000;3895;3895;1;13020;25.44;27.24;28,2;BCS1388054;7;10
009802;18.04.2021;08:34:54;Stop          ;03.12.2018;FEY;;LION;49;14500;7200;192;4;75;77;8400;3000;3895;3895;1;13017;25.44;27.34;28,4;BCS1388054;7;10
009802;04.08.2021;07:24:29;Normalcharge  ;03.12.2018;FEY;;LION;49;14500;7200;192;4;75;77;8400;3000;3870;3871;1;13024;29.44;30.84;31,5;BCS1388054;7;10
009802;04.08.2021;07:25:08;Stop          ;03.12.2018;FEY;;LION;49;14500;7200;128;4;75;77;8400;3000;3894;3882;1;12978;29.44;32.14;31,6;BCS1388054;7;10
009802;25.08.2021;08:15:19;Charge to 60% ;03.12.2018;FEY;;LION;49;14500;7200;192;4;75;77;8400;3000;3866;3866;1;12994;29.74;31.84;33,5;BCS1388054;2;16
009802;25.08.2021;10:43:17;Stop          ;03.12.2018;FEY;;LION;49;14500;7200;192;4;57;60;8400;3000;3704;3705;1;12992;32.34;34.44;36,4;BCS1388054;2;16
009802;01.11.2021;09:52:15;Normalcharge  ;03.12.2018;FEY;;LION;49;14500;7200;192;4;49;52;8400;3000;3687;3688;1;12994;25.34;25.74;26,3;BCS1388054;2;13
009802;01.11.2021;09:53:18;Stop          ;03.12.2018;FEY;;LION;49;14500;7200;128;4;49;52;8400;3000;3774;3728;1;12512;25.34;28.54;26,8;BCS1388054;2;13
009802;01.11.2021;10:02:05;Normalcharge  ;03.12.2018;FEY;;LION;49;14500;7200;192;4;49;52;8400;3000;3689;3690;1;12989;25.44;27.54;29,5;BCS1388054;2;13
009802;01.11.2021;10:03:24;Stop          ;03.12.2018;FEY;;LION;49;14500;7200;128;4;49;52;8400;3000;3779;3732;1;12498;25.44;30.64;29,3;BCS1388054;2;13
009802;01.11.2021;10:18:11;Normalcharge  ;03.12.2018;FEY;;LION;49;14500;7200;192;4;49;52;8400;3000;3692;3692;1;12990;25.64;26.74;28,4;BCS1388054;2;13
009802;01.11.2021;10:18:48;Stop          ;03.12.2018;FEY;;LION;49;14500;7200;128;4;49;52;8400;3000;3745;3715;1;12597;25.64;28.24;28,2;BCS1388054;2;13
009802;01.11.2021;10:28:53;Normalcharge  ;03.12.2018;FEY;;LION;49;14500;7200;192;4;49;52;8400;3000;3692;3693;1;12989;25.74;27.04;28,2;BCS1388054;2;13
009802;01.11.2021;10:29:00;Stop          ;03.12.2018;FEY;;LION;49;14500;7200;192;4;49;52;8400;3000;3692;3693;1;12977;25.74;27.14;28,4;BCS1388054;2;13
009802;01.11.2021;10:32:00;Charge to 60% ;03.12.2018;FEY;;LION;49;14500;7200;192;4;49;52;8400;3000;3692;3693;1;12992;25.74;17.84;29,7;BCS1388054;2;13
009802;01.11.2021;11:53:40;Stop          ;03.12.2018;FEY;;LION;49;14500;7200;192;4;56;60;8400;3000;3784;3787;1;12993;28.14;30.84;32,5;BCS1388054;2;13
009802;09.02.2022;08:16:46;Normalcharge  ;03.12.2018;FEY;;LION;49;14500;7200;192;4;54;57;8400;3000;3731;3732;1;13014;21.84;22.34;23,1;BCS1388054;3;15
009802;09.02.2022;12:49:54;Stop           ;03.12.2018;FEY;;LION;49;14500;7200;224;4;95;100;8400;;4158;4158;1;13011;25.54;27.04;29,9;BCS1388054;3;15