File: V1/reader/Batterieverzeichnis_new/001028.txt
Serialnumber ; Date ; Time ; Action ; Date of Manufacture ; Manufacturer ; Battery Name ; Device-Chemistry ; Specification-Info ; Design-Capacity [mAh] ; Design-Voltage [mV] ; Battery Status ; Cycle Count ; SOC [%] ; Relativ SOC[%] ; Desired Voltage [mV]; Desired Current [mA]; Cell Voltage 1 [mV] ; Cell Voltage 2 [mV] ; Max_Error [%] ; Busvoltage[mV] ; Battery Temperature [°C] ; Charger Temperature [°C] ; Batterysystem ; Case ; PLace
001028;10.12.2019;15:29:15;Charge to 30% ;28.11.2017;FEY;;LION;49;14500;7200;224;21;92;99;8400;;4123;4121;1;13038;22.44;24.44;27,1;BCS1388054;7;5
001028;10.12.2019;20:46:56;Stop          ;28.11.2017;FEY;;LION;49;14500;7200;192;22;28;30;8400;3000;3556;3554;1;13035;31.54;30.94;33,5;BCS1388054;7;5
001028;11.12.2019;08:49:12;Fastcharge    ;28.11.2017;FEY;;LION;49;14500;7200;192;22;28;30;8400;3000;3564;3562;1;13037;25.84;27.34;31,9;BCS1388054;7;5
001028;11.12.2019;13:38:42;Stop          ;28.11.2017;FEY;;LION;49;14500;7200;224;22;94;100;8400;;4163;4163;1;13036;28.54;28.84;32,7;BCS1388054;7;5
001028;11.12.2019;15:46:56;Charge to 10% ;28.11.2017;FEY;;LION;49;14500;7200;224;22;95;100;8400;;4155;4155;1;13036;26.44;27.44;31,2;BCS1388054;7;5
001028;11.12.2019;22:51:50;Stop          ;28.11.2017;FEY;;LION;49;14500;7200;192;23;10;10;8400;3000;3355;3354;1;13035;31.74;30.74;33,0;BCS1388054;7;5
001028;12.12.2019;08:45:27;Normalcharge  ;28.11.2017;FEY;;LION;49;14500;7200;192;23;9;10;8400;3000;3363;3362;1;13037;26.04;27.34;31,7;BCS1388054;7;5
001028;12.12.2019;16:41:08;Stop          ;28.11.2017;FEY;;LION;49;14500;7200;224;23;95;100;8400;;4161;4161;1;13037;27.94;28.34;31,6;BCS1388054;7;5
001028;13.12.2019;10:48:13;Charge to 10% ;28.11.2017;FEY;;LION;49;14500;7200;224;23;95;100;8400;;4150;4150;1;13038;26.04;27.64;32,0;BCS1388054;7;5
001028;13.12.2019;13:48:48;Stop          ;28.11.2017;FEY;;LION;49;14500;7200;192;23;57;60;8400;3000;3674;3727;1;13532;32.84;36.54;36,8;BCS1388054;7;5
001028;16.12.2019;07:43:34;Charge to 10% ;28.11.2017;FEY;;LION;49;14500;7200;192;23;59;62;8400;3000;3780;3780;1;13023;22.74;25.44;31,7;BCS1388054;7;12
001028;16.12.2019;11:52:34;Stop          ;28.11.2017;FEY;;LION;49;14500;7200;192;24;10;10;8400;3000;3355;3354;1;13021;30.34;30.84;34,7;BCS1388054;7;12
001028;16.12.2019;14:44:25;Charge to 90% ;28.11.2017;FEY;;LION;49;14500;7200;192;24;9;10;8400;3000;3359;3359;1;13023;27.94;28.24;31,7;BCS1388054;7;12
001028;16.12.2019;20:53:58;Stop          ;28.11.2017;FEY;;LION;49;14500;7200;192;24;83;90;8400;3000;4031;4029;1;13022;28.74;29.34;32,1;BCS1388054;7;12
001028;17.12.2019;08:38:02;Fastcharge    ;28.11.2017;FEY;;LION;49;14500;7200;192;24;83;90;8400;3000;4025;4023;1;13022;25.74;27.04;31,6;BCS1388054;7;12
001028;17.12.2019;10:36:25;Stop          ;28.11.2017;FEY;;LION;49;14500;7200;224;24;93;100;8400;;4161;4158;1;13022;26.94;27.84;31,5;BCS1388054;7;12
001028;17.12.2019;13:38:44;Charge to 10% ;28.11.2017;FEY;;LION;49;14500;7200;224;24;93;100;8400;;4152;4150;1;13023;26.04;27.04;30,8;BCS1388054;7;12
001028;17.12.2019;20:42:03;Stop          ;28.11.2017;FEY;;LION;49;14500;7200;192;25;10;10;8400;3000;3360;3358;1;13022;30.54;29.94;32,6;BCS1388054;7;12
001028;18.12.2019;08:31:43;Fastcharge    ;28.11.2017;FEY;;LION;49;14500;7200;192;25;9;10;8400;3000;3367;3365;1;13023;25.94;26.74;31,6;BCS1388054;7;12
001028;18.12.2019;14:30:48;Stop          ;28.11.2017;FEY;;LION;49;14500;7200;224;25;91;100;8400;;4159;4155;1;13022;27.84;28.14;31,6;BCS1388054;7;12
001028;19.12.2019;08:24:17;Charge to 60% ;28.11.2017;FEY;;LION;49;14500;7200;224;25;92;100;8400;;4149;4145;1;13023;25.84;27.04;31,6;BCS1388054;7;12
001028;19.12.2019;11:28:26;Stop          ;28.11.2017;FEY;;LION;49;14500;7200;192;26;56;60;8400;3000;3770;3768;1;13021;31.34;31.34;35,1;BCS1388054;7;12
001028;19.12.2019;12:16:57;Cycle         ;28.11.2017;FEY;;LION;49;14500;7200;192;26;56;60;8400;3000;3781;3778;1;13023;28.04;28.54;32,7;BCS1388054;7;12
001028;20.12.2019;17:22:28;Stop          ;28.11.2017;FEY;;LION;49;14500;7200;224;27;92;100;8400;;4153;4150;1;13022;26.04;27.34;31,9;BCS1388054;7;12
001028;06.01.2020;06:35:02;Charge to 60% ;28.11.2017;FEY;;LION;49;14500;7200;192;27;91;98;8400;;4123;4120;1;13024;25.94;27.04;31,9;BCS1388054;7;12
001028;06.01.2020;09:29:52;Stop          ;28.11.2017;FEY;;LION;49;14500;7200;192;27;56;60;8400;3000;3765;3764;1;13022;30.64;30.44;34,0;BCS1388054;7;12
001028;06.01.2020;09:50:50;Fastcharge    ;28.11.2017;FEY;;LION;49;14500;7200;192;27;56;60;8400;3000;3774;3773;1;13023;28.84;29.24;32,7;BCS1388054;7;12
001028;06.01.2020;13:05:11;Stop          ;28.11.2017;FEY;;LION;49;14500;7200;224;27;93;100;8400;;4163;4162;1;13022;27.64;28.04;32,4;BCS1388054;7;12