File: V1/reader/Batterieverzeichnis_new/009579.txt
Serialnumber ; Date ; Time ; Action ; Date of Manufacture ; Manufacturer ; Battery Name ; Device-Chemistry ; Specification-Info ; Design-Capacity [mAh] ; Design-Voltage [mV] ; Battery Status ; Cycle Count ; SOC [%] ; Relativ SOC[%] ; Desired Voltage [mV]; Desired Current [mA]; Cell Voltage 1 [mV] ; Cell Voltage 2 [mV] ; Max_Error [%] ; Busvoltage[mV] ; Battery Temperature [°C] ; Charger Temperature [°C] ; Batterysystem ; Case ; PLace
009579;07.12.2020;04:14:32;Cycle         ;04.12.2018;FEY;;LION;49;14500;7200;192;3;98;98;8400;;4138;4139;1;13010;25.74;27.54;30,3;BCS1388054;5;9
009579;08.12.2020;16:20:01;Stop          ;04.12.2018;FEY;;LION;49;14500;7200;192;3;98;98;8400;;4137;4137;1;13008;27.94;29.14;31,7;BCS1388054;5;9
009579;12.01.2021;04:17:40;Charge to 90% ;04.12.2018;FEY;;LION;49;14500;7200;192;3;97;97;8400;;4123;4123;1;13002;23.14;24.94;23,6;BCS1388054;6;2
009579;12.01.2021;05:00:55;Stop          ;04.12.2018;FEY;;LION;49;14500;7200;192;3;90;90;8400;3000;4059;4058;1;12998;27.14;31.44;31,2;BCS1388054;6;2
009579;12.01.2021;05:21:57;Cycle         ;04.12.2018;FEY;;LION;49;14500;7200;192;3;90;90;8400;3000;4062;4061;1;12999;27.14;30.14;30,4;BCS1388054;6;2
009579;13.01.2021;08:31:18;Stop          ;04.12.2018;FEY;;LION;49;14500;7200;224;4;98;100;8400;;4155;4156;1;12997;26.94;30.24;31,1;BCS1388054;6;2
009579;22.02.2021;17:31:46;Normalcharge  ;04.12.2018;FEY;;LION;49;14500;7200;192;5;43;44;8400;3000;3621;3620;1;12991;25.74;27.54;31,6;BCS1388054;1;2
009579;22.02.2021;23:06:28;Stop          ;04.12.2018;FEY;;LION;49;14500;7200;224;5;98;100;8400;;4160;4160;1;12991;26.84;28.44;30,6;BCS1388054;1;2