File: V1/reader/Batterieverzeichnis_new/009666.txt
Serialnumber ; Date ; Time ; Action ; Date of Manufacture ; Manufacturer ; Battery Name ; Device-Chemistry ; Specification-Info ; Design-Capacity [mAh] ; Design-Voltage [mV] ; Battery Status ; Cycle Count ; SOC [%] ; Relativ SOC[%] ; Desired Voltage [mV]; Desired Current [mA]; Cell Voltage 1 [mV] ; Cell Voltage 2 [mV] ; Max_Error [%] ; Busvoltage[mV] ; Battery Temperature [°C] ; Charger Temperature [°C] ; Batterysystem ; Case ; PLace
009666;07.12.2020;04:14:32;Cycle         ;03.12.2018;FEY;;LION;49;14500;7200;16576;3;97;98;;;4150;4150;1;13002;25.94;26.54;30,3;BCS1388054;5;6
009666;08.12.2020;16:20:01;Stop          ;03.12.2018;FEY;;LION;49;14500;7200;16576;3;97;98;;;4148;4148;1;12998;27.84;27.74;31,7;BCS1388054;5;6
009666;12.01.2021;04:17:33;Charge to 90% ;03.12.2018;FEY;;LION;49;14500;7200;16576;3;96;97;;;4132;4132;1;13009;23.24;22.74;23,6;BCS1388054;4;9
009666;12.01.2021;04:57:16;Stop          ;03.12.2018;FEY;;LION;49;14500;7200;192;3;90;90;8400;3000;4061;4061;1;13003;26.94;28.24;31,6;BCS1388054;4;9
009666;12.01.2021;05:21:49;Cycle         ;03.12.2018;FEY;;LION;49;14500;7200;192;3;90;90;8400;3000;4065;4066;1;13004;27.14;27.04;30,4;BCS1388054;4;9
009666;13.01.2021;08:19:19;Stop          ;03.12.2018;FEY;;LION;49;14500;7200;224;4;98;100;8400;;4156;4156;1;13005;27.54;27.04;30,7;BCS1388054;4;9
009666;21.02.2021;13:44:56;Normalcharge  ;03.12.2018;FEY;;LION;49;14500;7200;192;5;56;57;8400;3000;3717;3719;1;13017;22.94;22.94;27,7;BCS1388054;5;8
009666;21.02.2021;19:31:36;Stop          ;03.12.2018;FEY;;LION;49;14500;7200;224;5;98;100;8400;;4156;4155;1;13011;27.64;28.24;30,6;BCS1388054;5;8