File: V1/reader/Batterieverzeichnis_new/009699.txt
Serialnumber ; Date ; Time ; Action ; Date of Manufacture ; Manufacturer ; Battery Name ; Device-Chemistry ; Specification-Info ; Design-Capacity [mAh] ; Design-Voltage [mV] ; Battery Status ; Cycle Count ; SOC [%] ; Relativ SOC[%] ; Desired Voltage [mV]; Desired Current [mA]; Cell Voltage 1 [mV] ; Cell Voltage 2 [mV] ; Max_Error [%] ; Busvoltage[mV] ; Battery Temperature [°C] ; Charger Temperature [°C] ; Batterysystem ; Case ; PLace
009699;10.12.2019;15:28:33;Charge to 30% ;04.12.2018;FEY;;LION;49;14500;7200;192;50;91;98;8400;;4109;4106;1;13002;23.44;24.74;27,1;BCS1388054;1;5
009699;10.12.2019;20:42:16;Stop          ;04.12.2018;FEY;;LION;49;14500;7200;192;51;29;30;8400;3000;3563;3561;1;13000;32.04;31.04;34,1;BCS1388054;1;5
009699;11.12.2019;08:48:18;Fastcharge    ;04.12.2018;FEY;;LION;49;14500;7200;192;51;29;30;8400;3000;3571;3569;1;13002;26.04;27.04;31,9;BCS1388054;1;5
009699;11.12.2019;13:40:21;Stop          ;04.12.2018;FEY;;LION;49;14500;7200;224;51;94;100;8400;;4160;4160;1;13002;28.74;28.14;32,4;BCS1388054;1;5
009699;11.12.2019;15:45:57;Charge to 30% ;04.12.2018;FEY;;LION;49;14500;7200;224;51;95;99;8400;;4152;4151;1;13003;26.64;26.94;31,5;BCS1388054;1;5
009699;11.12.2019;15:46:00;Stop          ;04.12.2018;FEY;;LION;49;14500;7200;224;51;95;99;8400;;4152;4151;1;13001;26.64;27.04;31,5;BCS1388054;1;5
009699;11.12.2019;15:46:13;Charge to 10% ;04.12.2018;FEY;;LION;49;14500;7200;224;51;95;99;8400;;4152;4152;1;13001;26.64;26.94;31,5;BCS1388054;1;5
009699;11.12.2019;22:50:20;Stop          ;04.12.2018;FEY;;LION;49;14500;7200;192;52;10;10;8400;3000;3354;3352;1;13001;32.54;30.54;33,4;BCS1388054;1;5
009699;12.12.2019;08:44:40;Normalcharge  ;04.12.2018;FEY;;LION;49;14500;7200;192;52;9;10;8400;3000;3364;3362;1;13002;26.24;27.04;31,9;BCS1388054;1;5
009699;12.12.2019;16:39:22;Stop          ;04.12.2018;FEY;;LION;49;14500;7200;224;52;95;100;8400;;4161;4162;1;13001;28.24;27.84;31,7;BCS1388054;1;5
009699;13.12.2019;10:47:47;Charge to 10% ;04.12.2018;FEY;;LION;49;14500;7200;224;52;96;100;8400;;4148;4147;1;13002;26.24;27.24;32,0;BCS1388054;1;5
009699;13.12.2019;15:41:58;Stop          ;04.12.2018;FEY;;LION;49;14500;7200;192;53;34;36;8400;3000;3499;3548;1;13631;31.54;33.94;34,6;BCS1388054;1;5
009699;13.12.2019;15:42:01;Cycle         ;04.12.2018;FEY;;LION;49;14500;7200;192;53;34;36;8400;3000;3499;3548;1;13631;31.54;33.94;34,6;BCS1388054;1;5
009699;14.12.2019;22:41:25;Stop          ;04.12.2018;FEY;;LION;49;14500;7200;224;54;92;99;8400;;4151;4150;1;13002;26.24;27.14;31,9;BCS1388054;1;5
009699;16.12.2019;07:43:03;Charge to 10% ;04.12.2018;FEY;;LION;49;14500;7200;224;54;93;100;8400;;4145;4144;1;13000;25.94;26.54;31,9;BCS1388054;1;5
009699;16.12.2019;14:36:13;Stop          ;04.12.2018;FEY;;LION;49;14500;7200;192;55;10;10;8400;3000;3367;3365;1;13001;31.24;29.74;32,4;BCS1388054;1;5
009699;16.12.2019;14:44:00;Charge to 90% ;04.12.2018;FEY;;LION;49;14500;7200;192;55;10;10;8400;3000;3369;3367;1;13001;30.64;28.94;31,7;BCS1388054;1;5
009699;16.12.2019;20:50:03;Stop          ;04.12.2018;FEY;;LION;49;14500;7200;192;55;84;90;8400;3000;4055;4054;1;13002;30.34;28.74;31,7;BCS1388054;1;5
009699;17.12.2019;08:37:36;Fastcharge    ;04.12.2018;FEY;;LION;49;14500;7200;192;55;84;90;8400;3000;4046;4045;1;13000;26.04;26.94;31,6;BCS1388054;1;5
009699;17.12.2019;10:31:11;Stop          ;04.12.2018;FEY;;LION;49;14500;7200;224;55;94;100;8400;;4161;4161;1;13001;27.34;27.24;31,4;BCS1388054;1;5
009699;17.12.2019;13:38:19;Charge to 10% ;04.12.2018;FEY;;LION;49;14500;7200;224;55;94;100;8400;;4148;4149;1;13001;26.34;26.74;30,8;BCS1388054;1;5
009699;17.12.2019;20:33:50;Stop          ;04.12.2018;FEY;;LION;49;14500;7200;192;56;10;10;8400;3000;3365;3364;1;13001;32.54;30.84;34,2;BCS1388054;1;5
009699;18.12.2019;08:31:14;Fastcharge    ;04.12.2018;FEY;;LION;49;14500;7200;192;56;10;10;8400;3000;3375;3373;1;13002;26.14;26.74;31,6;BCS1388054;1;5
009699;18.12.2019;14:28:33;Stop          ;04.12.2018;FEY;;LION;49;14500;7200;224;56;94;100;8400;;4161;4162;1;13001;28.84;28.14;31,9;BCS1388054;1;5
009699;19.12.2019;08:23:45;Charge to 60% ;04.12.2018;FEY;;LION;49;14500;7200;224;56;95;100;8400;;4148;4149;1;13001;26.04;26.94;31,5;BCS1388054;1;5
009699;19.12.2019;11:29:32;Stop          ;04.12.2018;FEY;;LION;49;14500;7200;192;57;57;60;8400;3000;3765;3763;1;13001;32.64;31.44;34,9;BCS1388054;1;5
009699;19.12.2019;12:16:33;Cycle         ;04.12.2018;FEY;;LION;49;14500;7200;192;57;57;60;8400;3000;3775;3773;1;13001;29.34;28.44;32,7;BCS1388054;1;5
009699;20.12.2019;17:26:19;Stop          ;04.12.2018;FEY;;LION;49;14500;7200;224;58;93;100;8400;;4151;4151;1;13001;26.24;26.54;31,2;BCS1388054;1;5
009699;06.01.2020;06:34:38;Charge to 60% ;04.12.2018;FEY;;LION;49;14500;7200;224;58;92;99;8400;;4122;4122;1;13002;26.14;26.84;31,9;BCS1388054;1;5
009699;06.01.2020;09:30:29;Stop          ;04.12.2018;FEY;;LION;49;14500;7200;192;58;56;60;8400;3000;3766;3763;1;13002;31.84;30.44;33,9;BCS1388054;1;5
009699;06.01.2020;09:50:27;Fastcharge    ;04.12.2018;FEY;;LION;49;14500;7200;192;58;56;60;8400;3000;3775;3772;1;13001;30.34;28.94;32,6;BCS1388054;1;5
009699;06.01.2020;13:07:36;Stop          ;04.12.2018;FEY;;LION;49;14500;7200;224;58;94;100;8400;;4160;4161;1;13003;28.34;27.64;31,7;BCS1388054;1;5