File: V1/reader/Batterieverzeichnis_new/009642.txt
Serialnumber ; Date ; Time ; Action ; Date of Manufacture ; Manufacturer ; Battery Name ; Device-Chemistry ; Specification-Info ; Design-Capacity [mAh] ; Design-Voltage [mV] ; Battery Status ; Cycle Count ; SOC [%] ; Relativ SOC[%] ; Desired Voltage [mV]; Desired Current [mA]; Cell Voltage 1 [mV] ; Cell Voltage 2 [mV] ; Max_Error [%] ; Busvoltage[mV] ; Battery Temperature [°C] ; Charger Temperature [°C] ; Batterysystem ; Case ; PLace
009642;10.12.2019;15:28:54;Charge to 30% ;04.12.2018;FEY;;LION;49;14500;7200;224;47;93;99;8400;;4128;4129;1;13032;22.94;24.94;27,1;BCS1388054;4;16
009642;10.12.2019;20:47:57;Stop          ;04.12.2018;FEY;;LION;49;14500;7200;192;48;29;30;8400;3000;3559;3560;1;13030;34.54;34.44;33,4;BCS1388054;4;16
009642;11.12.2019;08:48:41;Fastcharge    ;04.12.2018;FEY;;LION;49;14500;7200;192;48;29;30;8400;3000;3568;3569;1;13031;26.84;28.54;31,9;BCS1388054;4;16
009642;11.12.2019;13:42:44;Stop          ;04.12.2018;FEY;;LION;49;14500;7200;224;48;95;100;8400;;4160;4161;1;13031;30.94;30.74;31,9;BCS1388054;4;16
009642;11.12.2019;15:46:31;Charge to 10% ;04.12.2018;FEY;;LION;49;14500;7200;224;48;96;100;8400;;4152;4154;1;13031;27.74;28.84;31,4;BCS1388054;4;16
009642;11.12.2019;22:50:44;Stop          ;04.12.2018;FEY;;LION;49;14500;7200;192;49;10;10;8400;3000;3357;3360;1;13031;35.24;34.34;33,2;BCS1388054;4;16
009642;12.12.2019;08:45:03;Normalcharge  ;04.12.2018;FEY;;LION;49;14500;7200;192;49;9;10;8400;3000;3366;3368;1;13031;26.94;28.64;31,9;BCS1388054;4;16
009642;12.12.2019;16:41:48;Stop          ;04.12.2018;FEY;;LION;49;14500;7200;224;49;96;100;8400;;4158;4159;1;13031;29.94;30.34;31,5;BCS1388054;4;16
009642;13.12.2019;10:48:01;Charge to 10% ;04.12.2018;FEY;;LION;49;14500;7200;224;49;95;100;8400;;4147;4148;1;13032;26.94;28.84;32,0;BCS1388054;4;16
009642;13.12.2019;15:42:25;Stop          ;04.12.2018;FEY;;LION;49;14500;7200;192;50;34;36;8400;3000;3502;3554;1;13539;33.94;38.74;34,6;BCS1388054;4;16
009642;13.12.2019;15:42:27;Cycle         ;04.12.2018;FEY;;LION;49;14500;7200;192;50;34;36;8400;3000;3502;3554;1;13538;33.94;38.74;34,6;BCS1388054;4;16
009642;14.12.2019;22:44:28;Stop          ;04.12.2018;FEY;;LION;49;14500;7200;224;51;94;100;8400;;4150;4150;1;13032;27.14;28.84;32,0;BCS1388054;4;16
009642;16.12.2019;07:43:14;Charge to 10% ;04.12.2018;FEY;;LION;49;14500;7200;224;51;94;100;8400;;4144;4144;1;13032;26.74;28.24;31,9;BCS1388054;4;16
009642;16.12.2019;14:36:44;Stop          ;04.12.2018;FEY;;LION;49;14500;7200;192;52;10;10;8400;3000;3364;3366;1;13030;33.74;33.04;32,4;BCS1388054;4;16
009642;16.12.2019;14:44:13;Charge to 90% ;04.12.2018;FEY;;LION;49;14500;7200;192;52;10;10;8400;3000;3366;3368;1;13030;33.04;31.64;31,7;BCS1388054;4;16
009642;16.12.2019;20:50:28;Stop          ;04.12.2018;FEY;;LION;49;14500;7200;192;52;84;90;8400;3000;4056;4057;1;13032;32.84;32.34;31,6;BCS1388054;4;16
009642;17.12.2019;08:37:50;Fastcharge    ;04.12.2018;FEY;;LION;49;14500;7200;192;52;84;90;8400;3000;4045;4046;1;13031;26.84;28.64;31,6;BCS1388054;4;16
009642;17.12.2019;10:31:07;Stop          ;04.12.2018;FEY;;LION;49;14500;7200;224;52;95;100;8400;;4160;4160;1;13032;28.74;29.84;31,4;BCS1388054;4;16
009642;17.12.2019;13:38:32;Charge to 10% ;04.12.2018;FEY;;LION;49;14500;7200;224;52;95;100;8400;;4149;4148;1;13031;27.14;28.54;30,8;BCS1388054;4;16
009642;17.12.2019;20:34:29;Stop          ;04.12.2018;FEY;;LION;49;14500;7200;192;53;10;10;8400;3000;3364;3366;1;13030;35.34;34.54;34,1;BCS1388054;4;16
009642;18.12.2019;08:31:26;Fastcharge    ;04.12.2018;FEY;;LION;49;14500;7200;192;53;10;10;8400;3000;3374;3376;1;13032;26.94;28.54;31,6;BCS1388054;4;16
009642;18.12.2019;14:29:12;Stop          ;04.12.2018;FEY;;LION;49;14500;7200;224;53;95;100;8400;;4160;4159;1;13031;31.04;30.94;31,9;BCS1388054;4;16
009642;19.12.2019;08:23:58;Charge to 60% ;04.12.2018;FEY;;LION;49;14500;7200;224;53;96;100;8400;;4148;4148;1;13032;26.84;28.64;31,6;BCS1388054;4;16
009642;19.12.2019;11:30:18;Stop          ;04.12.2018;FEY;;LION;49;14500;7200;192;54;58;60;8400;3000;3765;3766;1;13030;35.04;35.84;34,6;BCS1388054;4;16
009642;19.12.2019;12:16:45;Cycle         ;04.12.2018;FEY;;LION;49;14500;7200;192;54;58;60;8400;3000;3777;3779;1;13031;31.44;31.14;32,7;BCS1388054;4;16
009642;20.12.2019;17:30:48;Stop          ;04.12.2018;FEY;;LION;49;14500;7200;224;55;94;100;8400;;4151;4152;1;13033;27.34;28.44;30,6;BCS1388054;4;16
009642;06.01.2020;06:34:50;Charge to 60% ;04.12.2018;FEY;;LION;49;14500;7200;192;55;93;98;8400;;4121;4122;1;13032;27.04;28.74;31,9;BCS1388054;4;16
009642;06.01.2020;09:30:33;Stop          ;04.12.2018;FEY;;LION;49;14500;7200;192;55;57;60;8400;3000;3771;3775;1;13031;34.14;34.54;33,7;BCS1388054;4;16
009642;06.01.2020;09:50:38;Fastcharge    ;04.12.2018;FEY;;LION;49;14500;7200;192;55;57;60;8400;3000;3779;3783;1;13032;32.54;31.84;32,7;BCS1388054;4;16
009642;06.01.2020;13:09:19;Stop          ;04.12.2018;FEY;;LION;49;14500;7200;224;55;95;100;8400;;4158;4159;1;13033;30.54;30.44;31,4;BCS1388054;4;16