File: V1/reader/Batterieverzeichnis_new/009814.txt
Serialnumber ; Date ; Time ; Action ; Date of Manufacture ; Manufacturer ; Battery Name ; Device-Chemistry ; Specification-Info ; Design-Capacity [mAh] ; Design-Voltage [mV] ; Battery Status ; Cycle Count ; SOC [%] ; Relativ SOC[%] ; Desired Voltage [mV]; Desired Current [mA]; Cell Voltage 1 [mV] ; Cell Voltage 2 [mV] ; Max_Error [%] ; Busvoltage[mV] ; Battery Temperature [°C] ; Charger Temperature [°C] ; Batterysystem ; Case ; PLace
009814;10.12.2019;15:28:34;Charge to 30% ;04.12.2018;FEY;;LION;49;14500;7200;192;46;91;98;8400;;4110;4110;1;13006;23.74;27.04;27,1;BCS1388054;1;14
009814;10.12.2019;20:42:17;Stop          ;04.12.2018;FEY;;LION;49;14500;7200;192;47;29;30;8400;3000;3561;3560;1;13003;33.24;35.64;34,1;BCS1388054;1;14
009814;11.12.2019;08:48:18;Fastcharge    ;04.12.2018;FEY;;LION;49;14500;7200;192;47;29;30;8400;3000;3569;3569;1;13006;26.34;28.64;31,9;BCS1388054;1;14
009814;11.12.2019;13:40:21;Stop          ;04.12.2018;FEY;;LION;49;14500;7200;224;47;94;100;8400;;4160;4160;1;13005;30.24;31.44;32,4;BCS1388054;1;14
009814;11.12.2019;15:45:57;Charge to 30% ;04.12.2018;FEY;;LION;49;14500;7200;224;47;96;99;8400;;4153;4152;1;13006;27.24;29.04;31,5;BCS1388054;1;14
009814;11.12.2019;15:46:00;Stop          ;04.12.2018;FEY;;LION;49;14500;7200;224;47;96;99;8400;;4153;4152;1;13006;27.24;29.04;31,5;BCS1388054;1;14
009814;11.12.2019;15:46:13;Charge to 10% ;04.12.2018;FEY;;LION;49;14500;7200;224;47;96;99;8400;;4153;4152;1;13006;27.24;29.04;31,5;BCS1388054;1;14
009814;11.12.2019;22:50:20;Stop          ;04.12.2018;FEY;;LION;49;14500;7200;192;48;10;10;8400;3000;3352;3352;1;13005;34.04;35.24;33,4;BCS1388054;1;14
009814;12.12.2019;08:44:40;Normalcharge  ;04.12.2018;FEY;;LION;49;14500;7200;192;48;9;9;8400;3000;3362;3362;1;13006;26.54;28.84;31,9;BCS1388054;1;14
009814;12.12.2019;16:39:22;Stop          ;04.12.2018;FEY;;LION;49;14500;7200;224;48;96;100;8400;;4162;4163;1;13006;29.44;31.54;31,7;BCS1388054;1;14
009814;13.12.2019;10:47:47;Charge to 10% ;04.12.2018;FEY;;LION;49;14500;7200;224;48;96;100;8400;;4148;4148;1;13005;26.54;28.84;32,0;BCS1388054;1;14
009814;13.12.2019;15:41:58;Stop          ;04.12.2018;FEY;;LION;49;14500;7200;192;49;35;36;8400;3000;3500;3550;1;13636;33.04;42.04;34,6;BCS1388054;1;14
009814;13.12.2019;15:42:01;Cycle         ;04.12.2018;FEY;;LION;49;14500;7200;192;49;35;36;8400;3000;3500;3550;1;13004;33.04;42.04;34,6;BCS1388054;1;14
009814;14.12.2019;22:41:25;Stop          ;04.12.2018;FEY;;LION;49;14500;7200;224;50;93;99;8400;;4152;4151;1;13007;26.74;28.74;31,9;BCS1388054;1;14
009814;16.12.2019;07:43:03;Charge to 10% ;04.12.2018;FEY;;LION;49;14500;7200;224;50;94;100;8400;;4146;4145;1;13005;26.34;28.34;31,9;BCS1388054;1;14
009814;16.12.2019;14:36:13;Stop          ;04.12.2018;FEY;;LION;49;14500;7200;192;51;10;10;8400;3000;3365;3364;1;13006;32.84;34.34;32,4;BCS1388054;1;14
009814;16.12.2019;14:44:00;Charge to 90% ;04.12.2018;FEY;;LION;49;14500;7200;192;51;10;10;8400;3000;3366;3366;1;13006;32.24;32.14;31,7;BCS1388054;1;14
009814;16.12.2019;20:50:03;Stop          ;04.12.2018;FEY;;LION;49;14500;7200;192;51;84;90;8400;3000;4060;4061;1;13007;32.04;34.84;31,7;BCS1388054;1;14
009814;17.12.2019;08:37:37;Fastcharge    ;04.12.2018;FEY;;LION;49;14500;7200;192;51;84;90;8400;3000;4048;4048;1;13007;26.34;28.54;31,6;BCS1388054;1;14
009814;17.12.2019;10:31:11;Stop          ;04.12.2018;FEY;;LION;49;14500;7200;224;51;95;100;8400;;4160;4161;1;13005;28.04;30.24;31,4;BCS1388054;1;14
009814;17.12.2019;13:38:19;Charge to 10% ;04.12.2018;FEY;;LION;49;14500;7200;224;51;95;100;8400;;4150;4150;1;13006;26.64;28.54;30,8;BCS1388054;1;14
009814;17.12.2019;20:33:50;Stop          ;04.12.2018;FEY;;LION;49;14500;7200;192;52;10;10;8400;3000;3363;3363;1;13004;34.04;35.34;34,2;BCS1388054;1;14
009814;18.12.2019;08:31:14;Fastcharge    ;04.12.2018;FEY;;LION;49;14500;7200;192;52;10;10;8400;3000;3373;3373;1;13005;26.44;28.74;31,6;BCS1388054;1;14
009814;18.12.2019;14:28:33;Stop          ;04.12.2018;FEY;;LION;49;14500;7200;224;52;94;100;8400;;4159;4161;1;13006;30.34;31.34;31,9;BCS1388054;1;14
009814;19.12.2019;08:23:45;Charge to 60% ;04.12.2018;FEY;;LION;49;14500;7200;224;52;95;100;8400;;4148;4149;1;13006;26.34;28.54;31,5;BCS1388054;1;14
009814;19.12.2019;11:29:32;Stop          ;04.12.2018;FEY;;LION;49;14500;7200;192;53;57;60;8400;3000;3765;3767;1;13005;33.74;37.14;34,9;BCS1388054;1;14
009814;19.12.2019;12:16:33;Cycle         ;04.12.2018;FEY;;LION;49;14500;7200;192;53;57;60;8400;3000;3777;3779;1;13005;30.54;30.84;32,7;BCS1388054;1;14
009814;20.12.2019;17:26:19;Stop          ;04.12.2018;FEY;;LION;49;14500;7200;224;54;93;100;8400;;4152;4151;1;13007;26.64;28.64;31,2;BCS1388054;1;14
009814;06.01.2020;06:34:38;Charge to 60% ;04.12.2018;FEY;;LION;49;14500;7200;224;54;92;99;8400;;4123;4122;1;13006;26.44;28.64;31,9;BCS1388054;1;14
009814;06.01.2020;09:30:30;Stop          ;04.12.2018;FEY;;LION;49;14500;7200;192;54;57;60;8400;3000;3767;3766;1;13005;32.94;36.34;33,9;BCS1388054;1;14
009814;06.01.2020;09:50:27;Fastcharge    ;04.12.2018;FEY;;LION;49;14500;7200;192;54;57;60;8400;3000;3776;3776;1;13007;31.54;31.44;32,6;BCS1388054;1;14
009814;06.01.2020;13:07:36;Stop          ;04.12.2018;FEY;;LION;49;14500;7200;224;54;94;100;8400;;4160;4160;1;13007;29.74;31.24;31,7;BCS1388054;1;14