File: V1/reader/Batterieverzeichnis_new/009847.txt
Serialnumber ; Date ; Time ; Action ; Date of Manufacture ; Manufacturer ; Battery Name ; Device-Chemistry ; Specification-Info ; Design-Capacity [mAh] ; Design-Voltage [mV] ; Battery Status ; Cycle Count ; SOC [%] ; Relativ SOC[%] ; Desired Voltage [mV]; Desired Current [mA]; Cell Voltage 1 [mV] ; Cell Voltage 2 [mV] ; Max_Error [%] ; Busvoltage[mV] ; Battery Temperature [°C] ; Charger Temperature [°C] ; Batterysystem ; Case ; PLace
009847;10.12.2019;15:29:01;Charge to 30% ;03.12.2018;FEY;;LION;49;14500;7200;224;50;94;100;8400;;4129;4129;1;13023;22.44;24.54;27,1;BCS1388054;5;9
009847;10.12.2019;20:48:54;Stop          ;03.12.2018;FEY;;LION;49;14500;7200;192;51;29;30;8400;3000;3558;3557;1;13021;33.94;33.54;33,1;BCS1388054;5;9
009847;11.12.2019;08:48:53;Fastcharge    ;03.12.2018;FEY;;LION;49;14500;7200;192;51;29;30;8400;3000;3568;3568;1;13021;26.54;28.24;31,9;BCS1388054;5;9
009847;11.12.2019;13:40:11;Stop          ;03.12.2018;FEY;;LION;49;14500;7200;224;51;95;100;8400;;4162;4161;1;13022;30.74;30.64;32,4;BCS1388054;5;9
009847;11.12.2019;15:46:40;Charge to 10% ;03.12.2018;FEY;;LION;49;14500;7200;224;51;97;100;8400;;4153;4153;1;13022;27.44;28.44;31,4;BCS1388054;5;9
009847;11.12.2019;22:49:07;Stop          ;03.12.2018;FEY;;LION;49;14500;7200;192;52;10;10;8400;3000;3345;3344;1;13021;35.04;35.64;33,5;BCS1388054;5;9
009847;12.12.2019;08:45:10;Normalcharge  ;03.12.2018;FEY;;LION;49;14500;7200;192;52;9;9;8400;3000;3361;3360;1;13021;26.74;28.34;31,7;BCS1388054;5;9
009847;12.12.2019;16:41:20;Stop          ;03.12.2018;FEY;;LION;49;14500;7200;224;52;96;100;8400;;4163;4162;1;13021;29.74;30.04;31,6;BCS1388054;5;9
009847;13.12.2019;10:48:05;Charge to 10% ;03.12.2018;FEY;;LION;49;14500;7200;224;52;97;100;8400;;4148;4148;1;13022;26.74;28.34;32,0;BCS1388054;5;9
009847;13.12.2019;15:40:55;Stop          ;03.12.2018;FEY;;LION;49;14500;7200;192;53;36;37;8400;3000;3505;3555;1;13531;32.94;37.94;34,6;BCS1388054;5;9
009847;13.12.2019;15:41:42;Cycle         ;03.12.2018;FEY;;LION;49;14500;7200;192;53;36;37;8400;3000;3586;3585;1;13021;32.94;35.74;34,5;BCS1388054;5;9
009847;14.12.2019;22:39:35;Stop          ;03.12.2018;FEY;;LION;49;14500;7200;224;54;94;99;8400;;4151;4151;1;13022;26.84;28.24;31,7;BCS1388054;5;9
009847;16.12.2019;07:43:20;Charge to 10% ;03.12.2018;FEY;;LION;49;14500;7200;224;54;95;100;8400;;4145;4145;1;13022;26.54;27.54;31,9;BCS1388054;5;9
009847;16.12.2019;14:34:29;Stop          ;03.12.2018;FEY;;LION;49;14500;7200;192;55;10;10;8400;3000;3354;3354;1;13022;33.04;35.24;32,5;BCS1388054;5;9
009847;16.12.2019;14:44:17;Charge to 90% ;03.12.2018;FEY;;LION;49;14500;7200;192;55;10;10;8400;3000;3364;3364;1;13022;32.34;30.84;31,9;BCS1388054;5;9
009847;16.12.2019;20:48:55;Stop          ;03.12.2018;FEY;;LION;49;14500;7200;128;55;85;90;8400;3000;4063;4067;1;13022;32.64;33.34;31,9;BCS1388054;5;9
009847;17.12.2019;08:37:53;Fastcharge    ;03.12.2018;FEY;;LION;49;14500;7200;192;55;85;90;8400;3000;4046;4047;1;13021;26.64;28.14;31,6;BCS1388054;5;9
009847;17.12.2019;10:33:46;Stop          ;03.12.2018;FEY;;LION;49;14500;7200;224;55;95;100;8400;;4161;4161;1;13022;28.44;29.14;31,1;BCS1388054;5;9
009847;17.12.2019;10:33:46;Stop          ;03.12.2018;FEY;;LION;49;14500;7200;224;55;95;100;8400;;4161;4161;1;13022;28.44;29.14;31,1;BCS1388054;5;9
009847;17.12.2019;13:38:36;Charge to 10% ;03.12.2018;FEY;;LION;49;14500;7200;224;55;95;100;8400;;4150;4150;1;13022;26.94;28.04;30,8;BCS1388054;5;9
009847;17.12.2019;20:33:18;Stop          ;03.12.2018;FEY;;LION;49;14500;7200;192;56;10;10;8400;3000;3359;3358;1;13022;34.94;35.04;34,5;BCS1388054;5;9
009847;18.12.2019;08:31:30;Fastcharge    ;03.12.2018;FEY;;LION;49;14500;7200;192;56;10;10;8400;3000;3371;3371;1;13022;26.74;28.24;31,6;BCS1388054;5;9
009847;18.12.2019;14:29:27;Stop          ;03.12.2018;FEY;;LION;49;14500;7200;224;56;95;100;8400;;4161;4161;1;13021;30.74;30.24;31,7;BCS1388054;5;9
009847;19.12.2019;08:24:02;Charge to 60% ;03.12.2018;FEY;;LION;49;14500;7200;224;56;96;100;8400;;4148;4149;1;13020;26.64;28.14;31,5;BCS1388054;5;9
009847;19.12.2019;11:31:09;Stop          ;03.12.2018;FEY;;LION;49;14500;7200;192;57;58;60;8400;3000;3768;3768;1;13021;34.44;34.44;34,4;BCS1388054;5;9
009847;19.12.2019;12:16:49;Cycle         ;03.12.2018;FEY;;LION;49;14500;7200;192;57;58;60;8400;3000;3780;3780;1;13021;31.14;30.54;32,7;BCS1388054;5;9
009847;20.12.2019;17:27:50;Stop          ;03.12.2018;FEY;;LION;49;14500;7200;224;58;94;100;8400;;4152;4152;1;13022;27.14;28.14;31,0;BCS1388054;5;9
009847;06.01.2020;06:34:55;Charge to 60% ;03.12.2018;FEY;;LION;49;14500;7200;224;58;93;99;8400;;4122;4121;1;13022;26.94;28.34;31,9;BCS1388054;5;9
009847;06.01.2020;09:30:26;Stop          ;03.12.2018;FEY;;LION;49;14500;7200;192;59;57;60;8400;3000;3768;3767;1;13023;33.64;34.24;33,9;BCS1388054;5;9
009847;06.01.2020;09:50:42;Fastcharge    ;03.12.2018;FEY;;LION;49;14500;7200;192;59;57;60;8400;3000;3779;3779;1;13022;32.14;31.04;32,7;BCS1388054;5;9
009847;06.01.2020;13:09:56;Stop          ;03.12.2018;FEY;;LION;49;14500;7200;224;59;95;100;8400;;4160;4161;1;13023;30.34;29.74;31,4;BCS1388054;5;9