File: V1/reader/Batterieverzeichnis_new/009816.txt
Serialnumber ; Date ; Time ; Action ; Date of Manufacture ; Manufacturer ; Battery Name ; Device-Chemistry ; Specification-Info ; Design-Capacity [mAh] ; Design-Voltage [mV] ; Battery Status ; Cycle Count ; SOC [%] ; Relativ SOC[%] ; Desired Voltage [mV]; Desired Current [mA]; Cell Voltage 1 [mV] ; Cell Voltage 2 [mV] ; Max_Error [%] ; Busvoltage[mV] ; Battery Temperature [°C] ; Charger Temperature [°C] ; Batterysystem ; Case ; PLace
009816;10.12.2019;15:28:34;Charge to 30% ;03.12.2018;FEY;;LION;49;14500;7200;224;33;93;99;8400;;4113;4112;1;13012;23.34;25.64;27,1;BCS1388054;1;13
009816;10.12.2019;20:42:17;Stop          ;03.12.2018;FEY;;LION;49;14500;7200;192;34;29;30;8400;3000;3552;3549;1;13009;32.74;38.64;34,1;BCS1388054;1;13
009816;11.12.2019;08:48:18;Fastcharge    ;03.12.2018;FEY;;LION;49;14500;7200;192;34;29;30;8400;3000;3568;3567;1;13011;25.94;27.14;31,9;BCS1388054;1;13
009816;11.12.2019;13:40:21;Stop          ;03.12.2018;FEY;;LION;49;14500;7200;224;34;96;100;8400;;4165;4166;1;13011;29.54;30.84;32,4;BCS1388054;1;13
009816;11.12.2019;15:45:57;Charge to 30% ;03.12.2018;FEY;;LION;49;14500;7200;224;34;97;100;8400;;4156;4156;1;13012;26.74;27.64;31,5;BCS1388054;1;13
009816;11.12.2019;15:46:00;Stop          ;03.12.2018;FEY;;LION;49;14500;7200;224;34;97;100;8400;;4156;4156;1;13011;26.74;27.54;31,5;BCS1388054;1;13
009816;11.12.2019;15:46:13;Charge to 10% ;03.12.2018;FEY;;LION;49;14500;7200;224;34;97;100;8400;;4156;4156;1;13011;26.74;27.54;31,5;BCS1388054;1;13
009816;11.12.2019;22:50:20;Stop          ;03.12.2018;FEY;;LION;49;14500;7200;192;35;10;10;8400;3000;3253;3305;1;13010;33.54;39.64;33,4;BCS1388054;1;13
009816;12.12.2019;08:44:40;Normalcharge  ;03.12.2018;FEY;;LION;49;14500;7200;192;35;9;9;8400;3000;3361;3361;1;13011;26.14;27.34;31,9;BCS1388054;1;13
009816;12.12.2019;16:39:22;Stop          ;03.12.2018;FEY;;LION;49;14500;7200;224;35;97;100;8400;;4162;4162;1;13010;28.74;30.04;31,7;BCS1388054;1;13
009816;13.12.2019;10:47:47;Charge to 10% ;03.12.2018;FEY;;LION;49;14500;7200;224;35;97;100;8400;;4149;4149;1;13011;26.14;27.34;32,0;BCS1388054;1;13
009816;13.12.2019;15:41:58;Stop          ;03.12.2018;FEY;;LION;49;14500;7200;192;36;36;37;8400;3000;3506;3557;1;13640;32.34;41.04;34,6;BCS1388054;1;13
009816;13.12.2019;15:42:01;Cycle         ;03.12.2018;FEY;;LION;49;14500;7200;192;36;36;37;8400;3000;3506;3556;1;13008;32.34;40.94;34,6;BCS1388054;1;13
009816;14.12.2019;22:41:25;Stop          ;03.12.2018;FEY;;LION;49;14500;7200;224;37;94;100;8400;;4154;4153;1;13011;26.24;27.24;31,9;BCS1388054;1;13
009816;16.12.2019;07:43:03;Charge to 10% ;03.12.2018;FEY;;LION;49;14500;7200;224;37;95;100;8400;;4148;4146;1;13011;25.94;26.84;31,9;BCS1388054;1;13
009816;16.12.2019;14:36:13;Stop          ;03.12.2018;FEY;;LION;49;14500;7200;192;38;10;10;8400;3000;3268;3319;1;13011;32.34;38.74;32,4;BCS1388054;1;13
009816;16.12.2019;14:44:00;Charge to 90% ;03.12.2018;FEY;;LION;49;14500;7200;192;38;10;10;8400;3000;3364;3363;1;13010;31.74;31.04;31,7;BCS1388054;1;13
009816;16.12.2019;20:50:03;Stop          ;03.12.2018;FEY;;LION;49;14500;7200;128;38;85;90;8400;3000;4150;4076;1;13012;31.34;37.84;31,7;BCS1388054;1;13
009816;17.12.2019;08:37:37;Fastcharge    ;03.12.2018;FEY;;LION;49;14500;7200;192;38;85;90;8400;3000;4047;4047;1;13011;25.94;27.14;31,6;BCS1388054;1;13
009816;17.12.2019;10:31:11;Stop          ;03.12.2018;FEY;;LION;49;14500;7200;224;38;96;100;8400;;4162;4163;1;13011;27.54;28.94;31,4;BCS1388054;1;13
009816;17.12.2019;13:38:19;Charge to 10% ;03.12.2018;FEY;;LION;49;14500;7200;224;38;96;100;8400;;4153;4154;1;13012;26.24;27.14;30,8;BCS1388054;1;13
009816;17.12.2019;20:33:50;Stop          ;03.12.2018;FEY;;LION;49;14500;7200;192;39;10;10;8400;3000;3267;3319;1;13010;33.54;39.54;34,2;BCS1388054;1;13
009816;18.12.2019;08:31:14;Fastcharge    ;03.12.2018;FEY;;LION;49;14500;7200;192;39;10;10;8400;3000;3371;3371;1;13011;26.14;27.24;31,6;BCS1388054;1;13
009816;18.12.2019;14:28:33;Stop          ;03.12.2018;FEY;;LION;49;14500;7200;224;39;96;100;8400;;4164;4166;1;13010;29.54;30.44;31,9;BCS1388054;1;13
009816;19.12.2019;08:23:45;Charge to 60% ;03.12.2018;FEY;;LION;49;14500;7200;224;39;96;100;8400;;4152;4153;1;13011;26.04;27.04;31,5;BCS1388054;1;13
009816;19.12.2019;11:29:32;Stop          ;03.12.2018;FEY;;LION;49;14500;7200;192;40;58;60;8400;3000;3765;3765;1;13009;33.14;38.24;34,9;BCS1388054;1;13
009816;19.12.2019;12:16:33;Cycle         ;03.12.2018;FEY;;LION;49;14500;7200;192;40;58;60;8400;3000;3785;3785;1;13011;29.74;29.34;32,7;BCS1388054;1;13
009816;20.12.2019;17:26:19;Stop          ;03.12.2018;FEY;;LION;49;14500;7200;224;41;95;100;8400;;4154;4152;1;13012;26.24;27.14;31,2;BCS1388054;1;13
009816;06.01.2020;06:34:38;Charge to 60% ;03.12.2018;FEY;;LION;49;14500;7200;224;41;93;99;8400;;4123;4122;1;13012;26.14;27.14;31,9;BCS1388054;1;13
009816;06.01.2020;09:30:30;Stop          ;03.12.2018;FEY;;LION;49;14500;7200;192;42;57;60;8400;3000;3764;3762;1;13012;32.34;37.04;33,9;BCS1388054;1;13
009816;06.01.2020;09:50:27;Fastcharge    ;03.12.2018;FEY;;LION;49;14500;7200;192;42;57;60;8400;3000;3781;3779;1;13012;30.84;30.04;32,6;BCS1388054;1;13
009816;06.01.2020;13:07:36;Stop          ;03.12.2018;FEY;;LION;49;14500;7200;224;42;95;100;8400;;4164;4163;1;13012;29.04;30.54;31,7;BCS1388054;1;13