File: reader/backup_20211213/001038.txt
Serialnumber ; Date ; Time ; Action ; Date of Manufacture ; Manufacturer ; Battery Name ; Device-Chemistry ; Specification-Info ; Design-Capacity [mAh] ; Design-Voltage [mV] ; Battery Status ; Cycle Count ; SOC [%] ; Relativ SOC[%] ; Desired Voltage [mV]; Desired Current [mA]; Cell Voltage 1 [mV] ; Cell Voltage 2 [mV] ; Max_Error [%] ; Busvoltage[mV] ; Battery Temperature [°C] ; Charger Temperature [°C] ; Batterysystem ; Case ; PLace
001038;10.12.2019;15:29:15;Charge to 30% ;28.11.2017;FEY;;LION;49;14500;7200;224;27;93;99;8400;;4121;4121;1;13032;22.44;24.74;27,1;BCS1388054;7;13
001038;10.12.2019;20:46:56;Stop          ;28.11.2017;FEY;;LION;49;14500;7200;192;28;29;30;8400;3000;3554;3554;1;13029;32.94;33.54;33,5;BCS1388054;7;13
001038;11.12.2019;08:49:12;Fastcharge    ;28.11.2017;FEY;;LION;49;14500;7200;192;28;29;30;8400;3000;3563;3563;1;13030;26.04;27.54;31,9;BCS1388054;7;13
001038;11.12.2019;13:38:42;Stop          ;28.11.2017;FEY;;LION;49;14500;7200;224;28;94;100;8400;;4162;4162;1;13030;29.74;30.34;32,7;BCS1388054;7;13
001038;11.12.2019;15:46:56;Charge to 10% ;28.11.2017;FEY;;LION;49;14500;7200;224;28;96;100;8400;;4154;4154;1;13029;26.84;28.04;31,2;BCS1388054;7;13
001038;11.12.2019;22:51:50;Stop          ;28.11.2017;FEY;;LION;49;14500;7200;192;29;10;10;8400;3000;3353;3354;1;13029;33.34;32.84;33,0;BCS1388054;7;13
001038;12.12.2019;08:45:27;Normalcharge  ;28.11.2017;FEY;;LION;49;14500;7200;192;29;9;10;8400;3000;3361;3362;1;13030;26.14;27.74;31,7;BCS1388054;7;13
001038;12.12.2019;16:41:08;Stop          ;28.11.2017;FEY;;LION;49;14500;7200;224;29;95;100;8400;;4158;4158;1;13030;28.84;29.34;31,6;BCS1388054;7;13
001038;13.12.2019;10:48:13;Charge to 10% ;28.11.2017;FEY;;LION;49;14500;7200;224;29;95;100;8400;;4149;4148;1;13030;26.24;27.84;32,0;BCS1388054;7;13
001038;13.12.2019;13:48:48;Stop          ;28.11.2017;FEY;;LION;49;14500;7200;192;29;57;61;8400;3000;3676;3729;1;13532;34.14;42.44;36,8;BCS1388054;7;13
001038;16.12.2019;07:43:27;Charge to 10% ;28.11.2017;FEY;;LION;49;14500;7200;192;29;57;61;8400;3000;3780;3781;1;13011;22.44;28.34;31,7;BCS1388054;6;14
001038;16.12.2019;14:43:10;Stop          ;28.11.2017;FEY;;LION;49;14500;7200;192;30;10;10;8400;3000;3363;3363;1;13010;30.14;32.64;31,7;BCS1388054;6;14
001038;16.12.2019;14:44:21;Charge to 90% ;28.11.2017;FEY;;LION;49;14500;7200;192;30;10;10;8400;3000;3363;3364;1;13010;30.14;32.44;31,9;BCS1388054;6;14
001038;16.12.2019;20:54:26;Stop          ;28.11.2017;FEY;;LION;49;14500;7200;192;30;84;90;8400;3000;4047;4047;1;13012;32.24;33.44;32,1;BCS1388054;6;14
001038;17.12.2019;08:37:58;Fastcharge    ;28.11.2017;FEY;;LION;49;14500;7200;192;30;84;90;8400;3000;4039;4039;1;13010;26.44;28.84;31,6;BCS1388054;6;14
001038;17.12.2019;13:38:40;Charge to 10% ;28.11.2017;FEY;;LION;49;14500;7200;224;30;94;100;8400;;4151;4152;1;13010;26.84;29.04;30,8;BCS1388054;6;14
001038;17.12.2019;20:41:41;Stop          ;28.11.2017;FEY;;LION;49;14500;7200;192;31;10;10;8400;3000;3358;3358;1;13011;34.14;35.34;32,6;BCS1388054;6;14
001038;18.12.2019;08:31:34;Fastcharge    ;28.11.2017;FEY;;LION;49;14500;7200;192;31;9;10;8400;3000;3365;3366;1;13012;26.54;29.14;31,6;BCS1388054;6;14
001038;18.12.2019;14:33:31;Stop          ;28.11.2017;FEY;;LION;49;14500;7200;224;31;93;100;8400;;4159;4160;1;13011;30.54;31.24;31,4;BCS1388054;6;14
001038;19.12.2019;08:24:06;Charge to 60% ;28.11.2017;FEY;;LION;49;14500;7200;224;31;94;100;8400;;4150;4151;1;13010;26.54;28.84;31,5;BCS1388054;6;14
001038;19.12.2019;11:34:24;Stop          ;28.11.2017;FEY;;LION;49;14500;7200;192;31;57;60;8400;3000;3774;3774;1;13010;33.84;35.14;33,5;BCS1388054;6;14
001038;19.12.2019;12:16:53;Cycle         ;28.11.2017;FEY;;LION;49;14500;7200;192;31;57;60;8400;3000;3780;3781;1;13010;30.74;31.34;32,7;BCS1388054;6;14
001038;20.12.2019;17:31:05;Stop          ;28.11.2017;FEY;;LION;49;14500;7200;224;33;94;100;8400;;4153;4154;1;13012;26.94;28.94;30,6;BCS1388054;6;14
001038;06.01.2020;06:34:58;Charge to 60% ;28.11.2017;FEY;;LION;49;14500;7200;192;33;92;98;8400;;4124;4124;1;13012;26.74;29.04;31,9;BCS1388054;6;14
001038;06.01.2020;09:30:42;Stop          ;28.11.2017;FEY;;LION;49;14500;7200;192;33;57;60;8400;3000;3764;3765;1;13012;33.34;36.84;33,7;BCS1388054;6;14
001038;06.01.2020;09:50:46;Fastcharge    ;28.11.2017;FEY;;LION;49;14500;7200;192;33;57;60;8400;3000;3774;3775;1;13013;31.84;31.94;32,7;BCS1388054;6;14
001038;06.01.2020;13:06:22;Stop          ;28.11.2017;FEY;;LION;49;14500;7200;224;33;94;100;8400;;4160;4161;1;13013;30.24;31.54;32,1;BCS1388054;6;14