File: reader/backup_20211213/001015.txt
Serialnumber ; Date ; Time ; Action ; Date of Manufacture ; Manufacturer ; Battery Name ; Device-Chemistry ; Specification-Info ; Design-Capacity [mAh] ; Design-Voltage [mV] ; Battery Status ; Cycle Count ; SOC [%] ; Relativ SOC[%] ; Desired Voltage [mV]; Desired Current [mA]; Cell Voltage 1 [mV] ; Cell Voltage 2 [mV] ; Max_Error [%] ; Busvoltage[mV] ; Battery Temperature [°C] ; Charger Temperature [°C] ; Batterysystem ; Case ; PLace
001015;10.12.2019;15:29:09;Charge to 30% ;28.11.2017;FEY;;LION;49;14500;7200;224;21;91;99;8400;;4122;4122;1;13022;22.24;25.84;27,1;BCS1388054;6;17
001015;10.12.2019;20:46:41;Stop          ;28.11.2017;FEY;;LION;49;14500;7200;192;22;28;30;8400;3000;3555;3556;1;13020;32.64;34.34;33,6;BCS1388054;6;17
001015;11.12.2019;08:49:03;Fastcharge    ;28.11.2017;FEY;;LION;49;14500;7200;192;22;28;30;8400;3000;3562;3562;1;13020;25.94;28.74;31,9;BCS1388054;6;17
001015;11.12.2019;13:39:30;Stop          ;28.11.2017;FEY;;LION;49;14500;7200;224;22;93;100;8400;;4163;4163;1;13021;29.84;31.24;32,5;BCS1388054;6;17
001015;11.12.2019;15:46:47;Charge to 10% ;28.11.2017;FEY;;LION;49;14500;7200;224;22;95;100;8400;;4156;4156;1;13020;26.84;29.04;31,4;BCS1388054;6;17
001015;11.12.2019;22:52:10;Stop          ;28.11.2017;FEY;;LION;49;14500;7200;192;23;10;10;8400;3000;3354;3354;1;13019;33.24;34.04;33,0;BCS1388054;6;17
001015;12.12.2019;08:45:18;Normalcharge  ;28.11.2017;FEY;;LION;49;14500;7200;192;23;9;10;8400;3000;3362;3362;1;13019;26.14;28.84;31,7;BCS1388054;6;17
001015;12.12.2019;16:41:29;Stop          ;28.11.2017;FEY;;LION;49;14500;7200;224;23;94;100;8400;;4161;4161;1;13020;28.84;30.44;31,5;BCS1388054;6;17
001015;13.12.2019;10:48:09;Charge to 10% ;28.11.2017;FEY;;LION;49;14500;7200;224;23;94;100;8400;;4151;4152;1;13020;26.14;28.94;32,0;BCS1388054;6;17
001015;13.12.2019;13:51:54;Stop          ;28.11.2017;FEY;;LION;49;14500;7200;192;24;56;60;8400;3000;3665;3720;1;13519;34.04;42.24;36,1;BCS1388054;6;17
001015;16.12.2019;07:43:34;Charge to 10% ;28.11.2017;FEY;;LION;49;14500;7200;192;24;56;60;8400;3000;3770;3772;1;13025;22.14;26.34;31,7;BCS1388054;7;10
001015;16.12.2019;11:52:34;Stop          ;28.11.2017;FEY;;LION;49;14500;7200;192;24;10;10;8400;3000;3359;3359;1;13022;31.54;31.94;34,7;BCS1388054;7;10
001015;16.12.2019;14:44:25;Charge to 90% ;28.11.2017;FEY;;LION;49;14500;7200;192;24;9;10;8400;3000;3362;3363;1;13022;28.34;29.14;31,7;BCS1388054;7;10
001015;16.12.2019;20:53:58;Stop          ;28.11.2017;FEY;;LION;49;14500;7200;192;24;83;90;8400;3000;4048;4049;1;13024;30.64;30.04;32,1;BCS1388054;7;10
001015;17.12.2019;08:38:01;Fastcharge    ;28.11.2017;FEY;;LION;49;14500;7200;192;24;84;90;8400;3000;4040;4041;1;13023;25.64;27.64;31,6;BCS1388054;7;10
001015;17.12.2019;10:36:25;Stop          ;28.11.2017;FEY;;LION;49;14500;7200;224;24;93;100;8400;;4160;4160;1;13023;27.14;28.54;31,5;BCS1388054;7;10
001015;17.12.2019;13:38:44;Charge to 10% ;28.11.2017;FEY;;LION;49;14500;7200;224;24;93;100;8400;;4153;4153;1;13022;25.94;27.64;30,8;BCS1388054;7;10
001015;17.12.2019;20:42:03;Stop          ;28.11.2017;FEY;;LION;49;14500;7200;192;26;10;10;8400;3000;3357;3358;1;13023;32.54;31.14;32,6;BCS1388054;7;10
001015;18.12.2019;08:31:43;Fastcharge    ;28.11.2017;FEY;;LION;49;14500;7200;192;26;9;10;8400;3000;3364;3365;1;13022;25.74;27.64;31,6;BCS1388054;7;10
001015;18.12.2019;14:30:48;Stop          ;28.11.2017;FEY;;LION;49;14500;7200;224;26;92;100;8400;;4161;4161;1;13023;29.24;29.14;31,6;BCS1388054;7;10
001015;19.12.2019;08:24:17;Charge to 60% ;28.11.2017;FEY;;LION;49;14500;7200;224;26;93;100;8400;;4151;4152;1;13023;25.64;27.64;31,6;BCS1388054;7;10
001015;19.12.2019;11:28:26;Stop          ;28.11.2017;FEY;;LION;49;14500;7200;192;26;56;60;8400;3000;3768;3769;1;13024;32.64;33.04;35,1;BCS1388054;7;10
001015;19.12.2019;12:16:57;Cycle         ;28.11.2017;FEY;;LION;49;14500;7200;192;26;56;60;8400;3000;3778;3780;1;13023;29.54;29.54;32,7;BCS1388054;7;10
001015;20.12.2019;17:22:28;Stop          ;28.11.2017;FEY;;LION;49;14500;7200;224;27;93;100;8400;;4155;4154;1;13023;26.04;27.94;31,9;BCS1388054;7;10
001015;06.01.2020;06:35:02;Charge to 60% ;28.11.2017;FEY;;LION;49;14500;7200;192;27;91;98;8400;;4124;4124;1;13024;25.74;27.74;31,9;BCS1388054;7;10
001015;06.01.2020;09:29:52;Stop          ;28.11.2017;FEY;;LION;49;14500;7200;192;28;56;60;8400;3000;3764;3764;1;13023;31.84;32.04;34,0;BCS1388054;7;10
001015;06.01.2020;09:50:50;Fastcharge    ;28.11.2017;FEY;;LION;49;14500;7200;192;28;56;60;8400;3000;3772;3773;1;13024;30.44;30.04;32,7;BCS1388054;7;10
001015;06.01.2020;13:05:11;Stop          ;28.11.2017;FEY;;LION;49;14500;7200;224;28;93;100;8400;;4160;4160;1;13023;28.74;29.24;32,4;BCS1388054;7;10