File: reader/backup_20211213/009590.txt
Serialnumber ; Date ; Time ; Action ; Date of Manufacture ; Manufacturer ; Battery Name ; Device-Chemistry ; Specification-Info ; Design-Capacity [mAh] ; Design-Voltage [mV] ; Battery Status ; Cycle Count ; SOC [%] ; Relativ SOC[%] ; Desired Voltage [mV]; Desired Current [mA]; Cell Voltage 1 [mV] ; Cell Voltage 2 [mV] ; Max_Error [%] ; Busvoltage[mV] ; Battery Temperature [°C] ; Charger Temperature [°C] ; Batterysystem ; Case ; PLace
009590;12.01.2021;04:17:33;Charge to 90% ;04.12.2018;FEY;;LION;49;14500;7200;16576;3;96;96;;;4113;4112;1;13005;22.94;23.34;23,6;BCS1388054;4;15
009590;12.01.2021;04:57:16;Stop          ;04.12.2018;FEY;;LION;49;14500;7200;192;3;91;90;8400;3000;4060;4059;1;13000;26.34;29.34;31,6;BCS1388054;4;15
009590;12.01.2021;05:21:49;Cycle         ;04.12.2018;FEY;;LION;49;14500;7200;192;3;91;90;8400;3000;4063;4062;1;13002;26.74;28.14;30,4;BCS1388054;4;15
009590;13.01.2021;08:19:19;Stop          ;04.12.2018;FEY;;LION;49;14500;7200;224;4;99;100;8400;;4155;4156;1;13001;27.04;28.14;30,7;BCS1388054;4;15
009590;21.02.2021;13:43:32;Normalcharge  ;04.12.2018;FEY;;LION;49;14500;7200;192;5;60;61;8400;3000;3759;3757;1;13003;23.04;25.34;27,5;BCS1388054;2;4
009590;21.02.2021;19:27:00;Stop          ;04.12.2018;FEY;;LION;49;14500;7200;224;5;99;100;8400;;4154;4156;1;13003;26.74;28.24;31,1;BCS1388054;2;4
009590;06.04.2021;08:39:10;Normalcharge  ;04.12.2018;FEY;;LION;49;14500;7200;224;5;98;99;8400;;4128;4129;1;13014;21.44;25.64;28,1;BCS1388054;5;2
009590;06.04.2021;08:39:58;Stop          ;04.12.2018;FEY;;LION;49;14500;7200;224;5;98;99;8400;;4128;4129;1;13014;21.44;26.14;28,4;BCS1388054;5;2
009590;08.04.2021;07:58:30;Normalcharge  ;04.12.2018;FEY;;LION;49;14500;7200;224;5;97;99;8400;;4127;4129;1;13011;25.04;25.44;26,4;BCS1388054;5;2
009590;08.04.2021;07:59:28;Stop          ;04.12.2018;FEY;;LION;49;14500;7200;224;5;97;99;8400;;4127;4129;1;13010;25.04;26.14;26,7;BCS1388054;5;2
009590;08.04.2021;10:36:12;Normalcharge  ;04.12.2018;FEY;;LION;49;14500;7200;224;5;97;99;8400;;4127;4128;1;13010;25.24;26.64;28,6;BCS1388054;5;2
009590;08.04.2021;10:37:06;Stop          ;04.12.2018;FEY;;LION;49;14500;7200;224;5;97;99;8400;;4127;4128;1;13009;25.24;27.24;29,0;BCS1388054;5;2
009590;18.04.2021;08:34:16;Normalcharge  ;04.12.2018;FEY;;LION;49;14500;7200;192;5;97;98;8400;;4123;4125;1;13013;25.94;27.54;28,1;BCS1388054;5;2
009590;18.04.2021;08:34:27;Stop          ;04.12.2018;FEY;;LION;49;14500;7200;192;5;97;98;8400;;4124;4125;1;13012;25.94;27.54;28,2;BCS1388054;5;2
009590;04.08.2021;07:24:41;Normalcharge  ;04.12.2018;FEY;;LION;49;14500;7200;192;5;95;96;8400;;4091;4092;1;13007;30.04;30.94;31,5;BCS1388054;5;2
009590;04.08.2021;07:25:23;Stop          ;04.12.2018;FEY;;LION;49;14500;7200;192;5;95;96;8400;;4091;4092;1;13006;30.04;31.54;31,6;BCS1388054;5;2
009590;22.08.2021;11:37:13;Normalcharge  ;04.12.2018;FEY;;LION;49;14500;7200;192;5;94;95;8400;3000;4086;4086;1;13024;22.44;29.34;31,9;BCS1388054;7;18
009590;22.08.2021;11:37:48;Stop          ;04.12.2018;FEY;;LION;49;14500;7200;128;5;94;95;8400;3000;4106;4099;1;12984;22.54;30.54;31,9;BCS1388054;7;18
009590;12.10.2021;12:59:04;Normalcharge  ;04.12.2018;FEY;;LION;49;14500;7200;192;5;51;52;8400;3000;3659;3660;1;13015;23.44;25.94;28,5;BCS1388054;7;15
009590;12.10.2021;12:59:37;Stop          ;04.12.2018;FEY;;LION;49;14500;7200;128;5;51;52;8400;3000;3677;3669;1;12921;23.54;27.24;28,6;BCS1388054;7;15
009590;14.10.2021;12:40:12;Normalcharge  ;04.12.2018;FEY;;LION;49;14500;7200;192;5;51;52;8400;3000;3659;3660;1;13011;23.24;25.84;27,9;BCS1388054;5;9
009590;14.10.2021;12:41:49;Stop          ;04.12.2018;FEY;;LION;49;14500;7200;128;5;51;52;8400;3000;3750;3704;1;12646;23.34;29.34;28,5;BCS1388054;5;9
009590;01.11.2021;09:52:01;Normalcharge  ;04.12.2018;FEY;;LION;49;14500;7200;192;5;51;52;8400;3000;3658;3659;1;13011;25.64;26.04;26,3;BCS1388054;5;9
009590;01.11.2021;09:53:41;Stop          ;04.12.2018;FEY;;LION;49;14500;7200;128;5;52;52;8400;3000;3747;3702;1;12591;25.64;29.44;27,3;BCS1388054;5;9
009590;01.11.2021;10:02:19;Normalcharge  ;04.12.2018;FEY;;LION;49;14500;7200;192;5;52;52;8400;3000;3661;3662;1;13008;25.74;27.74;29,5;BCS1388054;5;9
009590;01.11.2021;10:03:11;Stop          ;04.12.2018;FEY;;LION;49;14500;7200;128;5;52;52;8400;3000;3746;3700;1;12588;25.84;29.64;29,3;BCS1388054;5;9
009590;01.11.2021;10:27:35;Normalcharge  ;04.12.2018;FEY;;LION;49;14500;7200;192;5;52;52;8400;3000;3661;3662;1;13016;26.04;26.74;27,8;BCS1388054;5;9
009590;01.11.2021;10:29:14;Stop          ;04.12.2018;FEY;;LION;49;14500;7200;128;5;52;53;8400;3000;3750;3704;1;12593;26.04;30.24;28,6;BCS1388054;5;9
009590;01.11.2021;10:32:33;Charge to 60% ;04.12.2018;FEY;;LION;49;14500;7200;192;5;52;53;8400;3000;3665;3666;1;13013;26.14;28.34;29,9;BCS1388054;5;9
009590;01.11.2021;11:11:47;Stop          ;04.12.2018;FEY;;LION;49;14500;7200;192;5;59;60;8400;3000;3733;3734;1;13013;28.54;29.74;32,5;BCS1388054;5;9