File: reader/backup_20211213/009516.txt
Serialnumber ; Date ; Time ; Action ; Date of Manufacture ; Manufacturer ; Battery Name ; Device-Chemistry ; Specification-Info ; Design-Capacity [mAh] ; Design-Voltage [mV] ; Battery Status ; Cycle Count ; SOC [%] ; Relativ SOC[%] ; Desired Voltage [mV]; Desired Current [mA]; Cell Voltage 1 [mV] ; Cell Voltage 2 [mV] ; Max_Error [%] ; Busvoltage[mV] ; Battery Temperature [°C] ; Charger Temperature [°C] ; Batterysystem ; Case ; PLace
009516;30.11.2020;09:42:55;Stop          ;03.12.2018;FEY;;LION;49;14500;7200;192;3;96;98;8400;;4132;4132;1;13026;27.34;28.54;31,7;BCS1388054;7;4
009516;12.01.2021;04:17:22;Charge to 90% ;03.12.2018;FEY;;LION;49;14500;7200;192;3;95;97;8400;;4115;4115;1;13013;22.84;24.44;23,5;BCS1388054;2;5
009516;12.01.2021;04:54:21;Stop          ;03.12.2018;FEY;;LION;49;14500;7200;192;3;89;90;8400;3000;4054;4054;1;13003;26.54;30.14;31,9;BCS1388054;2;5
009516;12.01.2021;05:21:40;Cycle         ;03.12.2018;FEY;;LION;49;14500;7200;192;3;89;90;8400;3000;4059;4059;1;13006;26.84;28.34;30,6;BCS1388054;2;5
009516;13.01.2021;08:20:19;Stop          ;03.12.2018;FEY;;LION;49;14500;7200;224;5;98;100;8400;;4155;4157;1;13006;26.64;28.34;30,8;BCS1388054;2;5
009516;03.03.2021;08:17:46;Normalcharge  ;03.12.2018;FEY;;LION;49;14500;7200;192;5;39;40;8400;3000;3598;3598;1;13014;22.94;23.54;23,6;BCS1388054;7;9
009516;03.03.2021;10:54:05;Stop          ;03.12.2018;FEY;;LION;49;14500;7200;128;5;71;73;8400;3000;3966;3918;1;12684;30.54;34.14;31,4;BCS1388054;7;9
009516;03.03.2021;10:55:49;Normalcharge  ;03.12.2018;FEY;;LION;49;14500;7200;192;5;71;73;8400;3000;3882;3883;1;13008;30.54;31.84;30,6;BCS1388054;7;9
009516;03.03.2021;17:03:24;Stop          ;03.12.2018;FEY;;LION;49;14500;7200;224;5;100;100;8400;;4153;4156;1;13009;26.14;27.44;31,4;BCS1388054;7;9
009516;04.04.2021;11:50:02;Normalcharge  ;03.12.2018;FEY;;LION;49;14500;7200;192;6;54;54;8400;3000;3691;3692;1;13000;24.64;24.84;27,7;BCS1388054;6;6
009516;04.04.2021;11:51:24;Stop          ;03.12.2018;FEY;;LION;49;14500;7200;128;6;54;55;8400;3000;3780;3731;1;12668;24.74;27.14;28,5;BCS1388054;6;6
009516;05.04.2021;09:37:37;Charge to 60% ;03.12.2018;FEY;;LION;49;14500;7200;192;6;54;55;8400;3000;3694;3694;1;13012;24.74;24.84;26,0;BCS1388054;1;13
009516;05.04.2021;10:01:53;Stop          ;03.12.2018;FEY;;LION;49;14500;7200;128;6;59;60;8400;3000;3775;3779;1;13008;26.94;35.14;31,2;BCS1388054;1;13
009516;22.08.2021;11:37:25;Normalcharge  ;03.12.2018;FEY;;LION;49;14500;7200;192;6;52;53;8400;3000;3658;3658;1;13010;21.64;27.54;31,9;BCS1388054;4;18
009516;22.08.2021;11:38:13;Stop          ;03.12.2018;FEY;;LION;49;14500;7200;128;6;52;53;8400;3000;3732;3691;1;12615;21.84;29.54;32,1;BCS1388054;4;18
009516;25.08.2021;08:15:08;Charge to 60% ;03.12.2018;FEY;;LION;49;14500;7200;192;6;52;53;8400;3000;3660;3661;1;13007;30.14;30.74;33,4;BCS1388054;4;18
009516;25.08.2021;12:59:17;Stop          ;03.12.2018;FEY;;LION;49;14500;7200;192;6;59;60;8400;3000;3721;3721;1;13006;32.24;32.94;36,6;BCS1388054;4;18
009516;01.11.2021;09:52:21;Normalcharge  ;03.12.2018;FEY;;LION;49;14500;7200;192;6;54;55;8400;3000;3693;3694;1;13008;25.64;25.24;26,4;BCS1388054;1;13
009516;01.11.2021;09:53:14;Stop          ;03.12.2018;FEY;;LION;49;14500;7200;128;6;54;55;8400;3000;3779;3730;1;12473;25.74;27.64;26,8;BCS1388054;1;13
009516;01.11.2021;10:01:59;Normalcharge  ;03.12.2018;FEY;;LION;49;14500;7200;192;6;54;55;8400;3000;3695;3696;1;13002;25.84;26.94;29,5;BCS1388054;1;13
009516;01.11.2021;10:03:29;Stop          ;03.12.2018;FEY;;LION;49;14500;7200;128;6;55;55;8400;3000;3786;3739;1;12473;25.84;30.24;29,3;BCS1388054;1;13
009516;01.11.2021;10:27:58;Normalcharge  ;03.12.2018;FEY;;LION;49;14500;7200;192;6;55;55;8400;3000;3698;3699;1;13004;26.14;25.84;27,8;BCS1388054;1;13
009516;01.11.2021;10:28:31;Stop          ;03.12.2018;FEY;;LION;49;14500;7200;128;6;55;55;8400;3000;3728;3712;1;12655;26.14;27.14;28,1;BCS1388054;1;13
009516;01.11.2021;10:31:48;Charge to 60% ;03.12.2018;FEY;;LION;49;14500;7200;192;6;55;55;8400;3000;3699;3700;1;13003;26.14;26.04;29,9;BCS1388054;1;13
009516;01.11.2021;11:39:51;Stop          ;03.12.2018;FEY;;LION;49;14500;7200;192;6;59;60;8400;3000;3752;3753;1;13003;27.74;28.64;32,5;BCS1388054;1;13