File: reader/backup_20211213/009561.txt
Serialnumber ; Date ; Time ; Action ; Date of Manufacture ; Manufacturer ; Battery Name ; Device-Chemistry ; Specification-Info ; Design-Capacity [mAh] ; Design-Voltage [mV] ; Battery Status ; Cycle Count ; SOC [%] ; Relativ SOC[%] ; Desired Voltage [mV]; Desired Current [mA]; Cell Voltage 1 [mV] ; Cell Voltage 2 [mV] ; Max_Error [%] ; Busvoltage[mV] ; Battery Temperature [°C] ; Charger Temperature [°C] ; Batterysystem ; Case ; PLace
009561;10.12.2019;15:28:34;Charge to 30% ;03.12.2018;FEY;;LION;49;14500;7200;224;48;93;99;8400;;4109;4109;1;13003;23.14;27.74;27,1;BCS1388054;1;15
009561;10.12.2019;20:42:17;Stop          ;03.12.2018;FEY;;LION;49;14500;7200;192;49;29;30;8400;3000;3546;3548;1;12998;32.74;41.14;34,1;BCS1388054;1;15
009561;11.12.2019;08:48:18;Fastcharge    ;03.12.2018;FEY;;LION;49;14500;7200;192;49;29;30;8400;3000;3566;3567;1;13002;25.74;29.44;31,9;BCS1388054;1;15
009561;11.12.2019;13:40:21;Stop          ;03.12.2018;FEY;;LION;49;14500;7200;224;49;96;100;8400;;4163;4164;1;13001;29.54;32.74;32,4;BCS1388054;1;15
009561;11.12.2019;15:45:57;Charge to 30% ;03.12.2018;FEY;;LION;49;14500;7200;224;49;97;100;8400;;4153;4153;1;13002;26.64;29.84;31,5;BCS1388054;1;15
009561;11.12.2019;15:46:00;Stop          ;03.12.2018;FEY;;LION;49;14500;7200;224;49;97;100;8400;;4153;4153;1;13001;26.64;29.84;31,5;BCS1388054;1;15
009561;11.12.2019;15:46:13;Charge to 10% ;03.12.2018;FEY;;LION;49;14500;7200;224;49;97;100;8400;;4153;4153;1;13001;26.64;29.84;31,5;BCS1388054;1;15
009561;11.12.2019;22:50:20;Stop          ;03.12.2018;FEY;;LION;49;14500;7200;192;50;10;10;8400;3000;3344;3347;1;13000;33.64;38.54;33,4;BCS1388054;1;15
009561;12.12.2019;08:44:40;Normalcharge  ;03.12.2018;FEY;;LION;49;14500;7200;192;50;9;10;8400;3000;3361;3362;1;13001;25.94;29.64;31,9;BCS1388054;1;15
009561;12.12.2019;16:39:22;Stop          ;03.12.2018;FEY;;LION;49;14500;7200;224;50;97;100;8400;;4163;4163;1;13001;28.74;32.44;31,7;BCS1388054;1;15
009561;13.12.2019;10:47:47;Charge to 10% ;03.12.2018;FEY;;LION;49;14500;7200;224;50;97;100;8400;;4148;4147;1;13001;25.94;29.64;32,0;BCS1388054;1;15
009561;13.12.2019;15:41:58;Stop          ;03.12.2018;FEY;;LION;49;14500;7200;192;51;36;37;8400;3000;3504;3556;1;13632;32.34;42.04;34,6;BCS1388054;1;15
009561;13.12.2019;15:42:01;Cycle         ;03.12.2018;FEY;;LION;49;14500;7200;192;51;36;37;8400;3000;3504;3556;1;12999;32.34;42.04;34,6;BCS1388054;1;15
009561;14.12.2019;22:41:25;Stop          ;03.12.2018;FEY;;LION;49;14500;7200;224;52;94;99;8400;;4151;4150;1;13001;26.14;29.54;31,9;BCS1388054;1;15
009561;16.12.2019;07:43:03;Charge to 10% ;03.12.2018;FEY;;LION;49;14500;7200;224;52;95;100;8400;;4145;4144;1;13002;25.74;29.04;31,9;BCS1388054;1;15
009561;16.12.2019;14:36:13;Stop          ;03.12.2018;FEY;;LION;49;14500;7200;192;53;10;10;8400;3000;3356;3357;1;12999;32.34;38.34;32,4;BCS1388054;1;15
009561;16.12.2019;14:44:00;Charge to 90% ;03.12.2018;FEY;;LION;49;14500;7200;192;53;10;10;8400;3000;3364;3365;1;13000;31.84;32.84;31,7;BCS1388054;1;15
009561;16.12.2019;20:50:03;Stop          ;03.12.2018;FEY;;LION;49;14500;7200;128;53;85;90;8400;3000;4065;4068;1;13002;31.44;36.74;31,7;BCS1388054;1;15
009561;17.12.2019;08:37:37;Fastcharge    ;03.12.2018;FEY;;LION;49;14500;7200;192;53;85;90;8400;3000;4045;4046;1;13002;25.74;29.34;31,6;BCS1388054;1;15
009561;17.12.2019;10:31:11;Stop          ;03.12.2018;FEY;;LION;49;14500;7200;224;53;96;100;8400;;4159;4160;1;13001;27.34;30.84;31,4;BCS1388054;1;15
009561;17.12.2019;13:38:19;Charge to 10% ;03.12.2018;FEY;;LION;49;14500;7200;224;53;96;100;8400;;4148;4149;1;13002;26.04;29.34;30,8;BCS1388054;1;15
009561;17.12.2019;20:33:50;Stop          ;03.12.2018;FEY;;LION;49;14500;7200;192;55;10;10;8400;3000;3357;3360;1;12999;33.64;38.24;34,2;BCS1388054;1;15
009561;18.12.2019;08:31:14;Fastcharge    ;03.12.2018;FEY;;LION;49;14500;7200;192;55;10;10;8400;3000;3371;3373;1;13001;25.94;29.44;31,6;BCS1388054;1;15
009561;18.12.2019;14:28:33;Stop          ;03.12.2018;FEY;;LION;49;14500;7200;224;55;96;100;8400;;4163;4165;1;13000;29.64;32.54;31,9;BCS1388054;1;15
009561;19.12.2019;08:23:45;Charge to 60% ;03.12.2018;FEY;;LION;49;14500;7200;224;55;97;100;8400;;4148;4150;1;13002;25.74;29.34;31,5;BCS1388054;1;15
009561;19.12.2019;11:29:32;Stop          ;03.12.2018;FEY;;LION;49;14500;7200;192;55;58;60;8400;3000;3756;3761;1;12999;33.14;40.54;34,9;BCS1388054;1;15
009561;19.12.2019;12:16:33;Cycle         ;03.12.2018;FEY;;LION;49;14500;7200;192;55;58;60;8400;3000;3777;3782;1;13000;29.84;31.54;32,7;BCS1388054;1;15
009561;20.12.2019;17:26:19;Stop          ;03.12.2018;FEY;;LION;49;14500;7200;224;56;95;100;8400;;4151;4152;1;13002;26.04;29.44;31,2;BCS1388054;1;15
009561;06.01.2020;06:34:38;Charge to 60% ;03.12.2018;FEY;;LION;49;14500;7200;224;56;94;99;8400;;4121;4122;1;13003;25.84;29.34;31,9;BCS1388054;1;15
009561;06.01.2020;09:30:30;Stop          ;03.12.2018;FEY;;LION;49;14500;7200;192;57;57;60;8400;3000;3758;3762;1;13000;32.34;39.04;33,9;BCS1388054;1;15
009561;06.01.2020;09:50:27;Fastcharge    ;03.12.2018;FEY;;LION;49;14500;7200;192;57;57;60;8400;3000;3774;3779;1;13002;30.94;32.14;32,6;BCS1388054;1;15
009561;06.01.2020;13:07:36;Stop          ;03.12.2018;FEY;;LION;49;14500;7200;224;57;95;100;8400;;4163;4164;1;13003;29.04;32.54;31,7;BCS1388054;1;15