File: reader/backup_20211213/009527.txt
Serialnumber ; Date ; Time ; Action ; Date of Manufacture ; Manufacturer ; Battery Name ; Device-Chemistry ; Specification-Info ; Design-Capacity [mAh] ; Design-Voltage [mV] ; Battery Status ; Cycle Count ; SOC [%] ; Relativ SOC[%] ; Desired Voltage [mV]; Desired Current [mA]; Cell Voltage 1 [mV] ; Cell Voltage 2 [mV] ; Max_Error [%] ; Busvoltage[mV] ; Battery Temperature [°C] ; Charger Temperature [°C] ; Batterysystem ; Case ; PLace
009527;10.12.2019;15:28:54;Charge to 30% ;03.12.2018;FEY;;LION;49;14500;7200;224;46;93;100;8400;;4130;4130;1;13010;22.34;24.34;27,1;BCS1388054;4;5
009527;10.12.2019;20:47:57;Stop          ;03.12.2018;FEY;;LION;49;14500;7200;192;47;29;30;8400;3000;3552;3553;1;13008;33.14;32.44;33,4;BCS1388054;4;5
009527;11.12.2019;08:48:41;Fastcharge    ;03.12.2018;FEY;;LION;49;14500;7200;192;47;29;30;8400;3000;3568;3568;1;13010;26.14;27.64;31,9;BCS1388054;4;5
009527;11.12.2019;13:42:44;Stop          ;03.12.2018;FEY;;LION;49;14500;7200;224;47;96;100;8400;;4165;4166;1;13010;29.24;28.94;31,9;BCS1388054;4;5
009527;11.12.2019;15:46:31;Charge to 10% ;03.12.2018;FEY;;LION;49;14500;7200;224;47;97;100;8400;;4155;4155;1;13010;26.84;27.54;31,4;BCS1388054;4;5
009527;11.12.2019;22:50:44;Stop          ;03.12.2018;FEY;;LION;49;14500;7200;192;48;10;10;8400;3000;3340;3340;1;13009;33.84;33.84;33,2;BCS1388054;4;5
009527;12.12.2019;08:45:03;Normalcharge  ;03.12.2018;FEY;;LION;49;14500;7200;192;48;9;10;8400;3000;3361;3363;1;13008;26.34;27.54;31,9;BCS1388054;4;5
009527;12.12.2019;16:41:48;Stop          ;03.12.2018;FEY;;LION;49;14500;7200;224;48;97;100;8400;;4162;4163;1;13010;28.64;28.64;31,5;BCS1388054;4;5
009527;13.12.2019;10:48:01;Charge to 10% ;03.12.2018;FEY;;LION;49;14500;7200;224;48;97;100;8400;;4149;4149;1;13010;26.34;27.84;32,0;BCS1388054;4;5
009527;13.12.2019;15:42:25;Stop          ;03.12.2018;FEY;;LION;49;14500;7200;192;49;36;37;8400;3000;3506;3556;1;13510;32.24;35.24;34,6;BCS1388054;4;5
009527;13.12.2019;15:42:27;Cycle         ;03.12.2018;FEY;;LION;49;14500;7200;192;49;36;37;8400;3000;3506;3556;1;13008;32.24;35.14;34,6;BCS1388054;4;5
009527;14.12.2019;22:44:28;Stop          ;03.12.2018;FEY;;LION;49;14500;7200;224;50;94;99;8400;;4152;4154;1;13009;26.34;27.84;32,0;BCS1388054;4;5
009527;16.12.2019;07:43:14;Charge to 10% ;03.12.2018;FEY;;LION;49;14500;7200;224;50;95;100;8400;;4146;4147;1;13010;26.14;27.04;31,9;BCS1388054;4;5
009527;16.12.2019;14:36:44;Stop          ;03.12.2018;FEY;;LION;49;14500;7200;192;51;10;10;8400;3000;3358;3359;1;13009;32.24;31.44;32,4;BCS1388054;4;5
009527;16.12.2019;14:44:13;Charge to 90% ;03.12.2018;FEY;;LION;49;14500;7200;192;51;10;10;8400;3000;3365;3367;1;13010;31.64;29.54;31,7;BCS1388054;4;5
009527;16.12.2019;20:50:27;Stop          ;03.12.2018;FEY;;LION;49;14500;7200;192;51;85;90;8400;3000;4063;4064;1;13011;31.24;30.14;31,6;BCS1388054;4;5
009527;17.12.2019;08:37:49;Fastcharge    ;03.12.2018;FEY;;LION;49;14500;7200;192;51;85;90;8400;3000;4047;4048;1;13009;26.14;27.64;31,6;BCS1388054;4;5
009527;17.12.2019;10:31:06;Stop          ;03.12.2018;FEY;;LION;49;14500;7200;224;51;96;100;8400;;4161;4161;1;13010;27.64;28.04;31,4;BCS1388054;4;5
009527;17.12.2019;13:38:32;Charge to 10% ;03.12.2018;FEY;;LION;49;14500;7200;224;51;96;100;8400;;4151;4151;1;13010;26.44;27.44;30,8;BCS1388054;4;5
009527;17.12.2019;20:34:29;Stop          ;03.12.2018;FEY;;LION;49;14500;7200;192;52;10;10;8400;3000;3358;3358;1;13007;33.84;32.74;34,1;BCS1388054;4;5
009527;18.12.2019;08:31:26;Fastcharge    ;03.12.2018;FEY;;LION;49;14500;7200;192;52;10;10;8400;3000;3372;3373;1;13009;26.34;27.34;31,6;BCS1388054;4;5
009527;18.12.2019;14:29:12;Stop          ;03.12.2018;FEY;;LION;49;14500;7200;224;52;96;100;8400;;4164;4164;1;13010;29.34;29.14;31,9;BCS1388054;4;5
009527;19.12.2019;08:23:58;Charge to 60% ;03.12.2018;FEY;;LION;49;14500;7200;224;52;97;100;8400;;4149;4149;1;13010;26.24;27.64;31,6;BCS1388054;4;5
009527;19.12.2019;11:30:18;Stop          ;03.12.2018;FEY;;LION;49;14500;7200;192;53;58;60;8400;3000;3763;3763;1;13009;33.74;33.04;34,6;BCS1388054;4;5
009527;19.12.2019;12:16:45;Cycle         ;03.12.2018;FEY;;LION;49;14500;7200;192;53;58;60;8400;3000;3780;3780;1;13009;29.94;29.54;32,7;BCS1388054;4;5
009527;20.12.2019;17:30:48;Stop          ;03.12.2018;FEY;;LION;49;14500;7200;224;54;95;100;8400;;4152;4153;1;13010;26.44;27.24;30,6;BCS1388054;4;5
009527;06.01.2020;06:34:50;Charge to 60% ;03.12.2018;FEY;;LION;49;14500;7200;224;54;94;99;8400;;4122;4123;1;13009;26.34;27.74;31,9;BCS1388054;4;5
009527;06.01.2020;09:30:33;Stop          ;03.12.2018;FEY;;LION;49;14500;7200;192;55;57;60;8400;3000;3759;3760;1;13009;32.84;32.84;33,7;BCS1388054;4;5
009527;06.01.2020;09:50:38;Fastcharge    ;03.12.2018;FEY;;LION;49;14500;7200;192;55;57;60;8400;3000;3776;3779;1;13010;31.14;30.54;32,7;BCS1388054;4;5
009527;06.01.2020;13:09:19;Stop          ;03.12.2018;FEY;;LION;49;14500;7200;224;55;95;100;8400;;4164;4165;1;13011;28.84;28.44;31,4;BCS1388054;4;5