File: reader/backup_20211213/009552.txt
Serialnumber ; Date ; Time ; Action ; Date of Manufacture ; Manufacturer ; Battery Name ; Device-Chemistry ; Specification-Info ; Design-Capacity [mAh] ; Design-Voltage [mV] ; Battery Status ; Cycle Count ; SOC [%] ; Relativ SOC[%] ; Desired Voltage [mV]; Desired Current [mA]; Cell Voltage 1 [mV] ; Cell Voltage 2 [mV] ; Max_Error [%] ; Busvoltage[mV] ; Battery Temperature [°C] ; Charger Temperature [°C] ; Batterysystem ; Case ; PLace
009552;10.12.2019;15:28:41;Charge to 30% ;03.12.2018;FEY;;LION;49;14500;7200;224;49;93;100;8400;;4133;4132;1;13006;22.64;24.44;27,1;BCS1388054;2;14
009552;10.12.2019;20:48:37;Stop          ;03.12.2018;FEY;;LION;49;14500;7200;192;50;29;30;8400;3000;3558;3558;1;13002;33.74;35.94;33,2;BCS1388054;2;14
009552;11.12.2019;08:48:24;Fastcharge    ;03.12.2018;FEY;;LION;49;14500;7200;192;50;29;30;8400;3000;3568;3568;1;13004;26.04;28.04;31,9;BCS1388054;2;14
009552;11.12.2019;13:39:47;Stop          ;03.12.2018;FEY;;LION;49;14500;7200;224;50;95;100;8400;;4164;4165;1;13004;30.64;32.24;32,5;BCS1388054;2;14
009552;11.12.2019;15:46:18;Charge to 10% ;03.12.2018;FEY;;LION;49;14500;7200;224;50;96;100;8400;;4154;4154;1;13004;27.04;28.74;31,4;BCS1388054;2;14
009552;11.12.2019;22:49:04;Stop          ;03.12.2018;FEY;;LION;49;14500;7200;192;51;10;10;8400;3000;3349;3349;1;13002;34.74;37.54;33,6;BCS1388054;2;14
009552;12.12.2019;08:44:52;Normalcharge  ;03.12.2018;FEY;;LION;49;14500;7200;192;51;9;10;8400;3000;3362;3362;1;13003;26.24;28.24;31,9;BCS1388054;2;14
009552;12.12.2019;16:40:06;Stop          ;03.12.2018;FEY;;LION;49;14500;7200;224;51;96;100;8400;;4163;4164;1;13004;29.54;31.54;31,7;BCS1388054;2;14
009552;13.12.2019;10:47:50;Charge to 10% ;03.12.2018;FEY;;LION;49;14500;7200;224;51;96;100;8400;;4149;4149;1;13005;26.24;28.34;32,0;BCS1388054;2;14
009552;13.12.2019;15:42:08;Cycle         ;03.12.2018;FEY;;LION;49;14500;7200;192;52;35;37;8400;3000;3502;3553;1;13567;33.34;42.14;34,6;BCS1388054;2;14
009552;13.12.2019;15:42:08;Stop          ;03.12.2018;FEY;;LION;49;14500;7200;192;52;35;37;8400;3000;3502;3553;1;13567;33.34;42.14;34,6;BCS1388054;2;14
009552;14.12.2019;22:48:51;Stop          ;03.12.2018;FEY;;LION;49;14500;7200;224;53;93;99;8400;;4151;4150;1;13004;26.44;28.34;32,0;BCS1388054;2;14
009552;16.12.2019;07:43:06;Charge to 10% ;03.12.2018;FEY;;LION;49;14500;7200;224;53;94;100;8400;;4145;4144;1;13005;25.94;27.74;31,9;BCS1388054;2;14
009552;16.12.2019;14:37:54;Stop          ;03.12.2018;FEY;;LION;49;14500;7200;192;54;10;10;8400;3000;3363;3363;1;13004;33.14;34.44;32,4;BCS1388054;2;14
009552;16.12.2019;14:44:03;Charge to 90% ;03.12.2018;FEY;;LION;49;14500;7200;192;54;10;10;8400;3000;3366;3365;1;13005;32.74;32.54;31,9;BCS1388054;2;14
009552;16.12.2019;20:51:09;Stop          ;03.12.2018;FEY;;LION;49;14500;7200;192;54;85;90;8400;3000;4056;4058;1;13006;32.24;33.84;31,6;BCS1388054;2;14
009552;17.12.2019;08:37:41;Fastcharge    ;03.12.2018;FEY;;LION;49;14500;7200;192;54;85;90;8400;3000;4046;4047;1;13003;26.04;28.04;31,6;BCS1388054;2;14
009552;17.12.2019;10:30:36;Stop          ;03.12.2018;FEY;;LION;49;14500;7200;224;54;95;100;8400;;4161;4164;1;13005;28.04;30.64;31,5;BCS1388054;2;14
009552;17.12.2019;13:38:22;Charge to 10% ;03.12.2018;FEY;;LION;49;14500;7200;224;54;95;100;8400;;4150;4151;1;13005;26.44;28.24;30,8;BCS1388054;2;14
009552;17.12.2019;20:36:00;Stop          ;03.12.2018;FEY;;LION;49;14500;7200;192;56;10;10;8400;3000;3362;3362;1;13003;34.54;35.64;33,6;BCS1388054;2;14
009552;18.12.2019;08:31:17;Fastcharge    ;03.12.2018;FEY;;LION;49;14500;7200;192;56;10;10;8400;3000;3371;3372;1;13005;26.14;28.24;31,6;BCS1388054;2;14
009552;18.12.2019;14:28:27;Stop          ;03.12.2018;FEY;;LION;49;14500;7200;224;56;95;100;8400;;4162;4166;1;13005;30.64;31.74;32,0;BCS1388054;2;14
009552;19.12.2019;08:23:50;Charge to 60% ;03.12.2018;FEY;;LION;49;14500;7200;224;56;96;100;8400;;4149;4152;1;13005;26.04;28.04;31,5;BCS1388054;2;14
009552;19.12.2019;11:32:11;Stop          ;03.12.2018;FEY;;LION;49;14500;7200;192;56;58;60;8400;3000;3770;3772;1;13004;34.14;36.34;34,0;BCS1388054;2;14
009552;19.12.2019;12:16:37;Cycle         ;03.12.2018;FEY;;LION;49;14500;7200;192;56;58;60;8400;3000;3780;3782;1;13005;30.94;30.84;32,7;BCS1388054;2;14
009552;20.12.2019;17:35:47;Stop          ;03.12.2018;FEY;;LION;49;14500;7200;224;57;94;100;8400;;4152;4152;1;13006;26.44;28.14;31,1;BCS1388054;2;14
009552;06.01.2020;06:34:42;Charge to 60% ;03.12.2018;FEY;;LION;49;14500;7200;224;57;93;99;8400;;4123;4122;1;13006;26.14;28.04;31,9;BCS1388054;2;14
009552;06.01.2020;09:32:11;Stop          ;03.12.2018;FEY;;LION;49;14500;7200;192;58;57;60;8400;3000;3770;3770;1;13005;33.34;35.54;33,2;BCS1388054;2;14
009552;06.01.2020;09:50:30;Fastcharge    ;03.12.2018;FEY;;LION;49;14500;7200;192;58;57;60;8400;3000;3779;3779;1;13006;32.04;31.64;32,7;BCS1388054;2;14
009552;06.01.2020;13:08:34;Stop          ;03.12.2018;FEY;;LION;49;14500;7200;224;58;94;100;8400;;4161;4162;1;13005;30.04;31.04;31,6;BCS1388054;2;14