File: reader/backup_20211213/009639.txt
Serialnumber ; Date ; Time ; Action ; Date of Manufacture ; Manufacturer ; Battery Name ; Device-Chemistry ; Specification-Info ; Design-Capacity [mAh] ; Design-Voltage [mV] ; Battery Status ; Cycle Count ; SOC [%] ; Relativ SOC[%] ; Desired Voltage [mV]; Desired Current [mA]; Cell Voltage 1 [mV] ; Cell Voltage 2 [mV] ; Max_Error [%] ; Busvoltage[mV] ; Battery Temperature [°C] ; Charger Temperature [°C] ; Batterysystem ; Case ; PLace
009639;10.12.2019;15:28:54;Charge to 30% ;04.12.2018;FEY;;LION;49;14500;7200;224;45;94;100;8400;;4130;4129;1;13016;22.84;23.84;27,1;BCS1388054;4;9
009639;10.12.2019;20:47:57;Stop          ;04.12.2018;FEY;;LION;49;14500;7200;192;46;29;30;8400;3000;3553;3551;1;13014;34.74;34.04;33,4;BCS1388054;4;9
009639;11.12.2019;08:48:41;Fastcharge    ;04.12.2018;FEY;;LION;49;14500;7200;192;46;29;30;8400;3000;3567;3566;1;13017;26.94;27.34;31,9;BCS1388054;4;9
009639;11.12.2019;13:42:44;Stop          ;04.12.2018;FEY;;LION;49;14500;7200;224;46;96;100;8400;;4163;4164;1;13016;31.24;29.24;31,9;BCS1388054;4;9
009639;11.12.2019;15:46:31;Charge to 10% ;04.12.2018;FEY;;LION;49;14500;7200;224;46;98;100;8400;;4156;4157;1;13015;27.94;27.44;31,4;BCS1388054;4;9
009639;11.12.2019;22:50:44;Stop          ;04.12.2018;FEY;;LION;49;14500;7200;192;47;10;10;8400;3000;3350;3350;1;13015;35.64;33.54;33,2;BCS1388054;4;9
009639;12.12.2019;08:45:03;Normalcharge  ;04.12.2018;FEY;;LION;49;14500;7200;192;47;9;10;8400;3000;3363;3362;1;13015;27.14;27.44;31,9;BCS1388054;4;9
009639;12.12.2019;16:41:48;Stop          ;04.12.2018;FEY;;LION;49;14500;7200;224;47;97;100;8400;;4164;4168;1;13014;30.24;28.94;31,5;BCS1388054;4;9
009639;13.12.2019;10:48:01;Charge to 10% ;04.12.2018;FEY;;LION;49;14500;7200;224;47;97;100;8400;;4151;4153;1;13016;27.14;27.64;32,0;BCS1388054;4;9
009639;13.12.2019;15:42:25;Stop          ;04.12.2018;FEY;;LION;49;14500;7200;192;48;36;37;8400;3000;3506;3557;1;13514;34.04;37.24;34,6;BCS1388054;4;9
009639;13.12.2019;15:42:27;Cycle         ;04.12.2018;FEY;;LION;49;14500;7200;192;48;36;37;8400;3000;3506;3557;1;13514;34.04;37.24;34,6;BCS1388054;4;9
009639;14.12.2019;22:44:28;Stop          ;04.12.2018;FEY;;LION;49;14500;7200;224;49;94;99;8400;;4153;4156;1;13017;27.34;27.54;32,0;BCS1388054;4;9
009639;16.12.2019;07:43:14;Charge to 10% ;04.12.2018;FEY;;LION;49;14500;7200;224;49;95;100;8400;;4148;4149;1;13015;26.94;27.04;31,9;BCS1388054;4;9
009639;16.12.2019;14:36:44;Stop          ;04.12.2018;FEY;;LION;49;14500;7200;192;50;10;10;8400;3000;3355;3355;1;13015;34.04;34.14;32,4;BCS1388054;4;9
009639;16.12.2019;14:44:13;Charge to 90% ;04.12.2018;FEY;;LION;49;14500;7200;192;50;10;10;8400;3000;3364;3364;1;13017;33.44;30.04;31,7;BCS1388054;4;9
009639;16.12.2019;20:50:27;Stop          ;04.12.2018;FEY;;LION;49;14500;7200;128;50;86;90;8400;3000;4069;4070;1;13016;33.14;33.14;31,6;BCS1388054;4;9
009639;17.12.2019;08:37:49;Fastcharge    ;04.12.2018;FEY;;LION;49;14500;7200;192;50;86;90;8400;3000;4046;4047;1;13015;26.94;27.34;31,6;BCS1388054;4;9
009639;17.12.2019;10:31:06;Stop          ;04.12.2018;FEY;;LION;49;14500;7200;224;50;96;100;8400;;4162;4162;1;13017;28.84;28.44;31,4;BCS1388054;4;9
009639;17.12.2019;13:38:32;Charge to 10% ;04.12.2018;FEY;;LION;49;14500;7200;224;50;96;100;8400;;4152;4152;1;13016;27.34;27.14;30,8;BCS1388054;4;9
009639;17.12.2019;20:34:29;Stop          ;04.12.2018;FEY;;LION;49;14500;7200;192;51;10;10;8400;3000;3268;3317;1;13015;35.74;36.74;34,1;BCS1388054;4;9
009639;18.12.2019;08:31:26;Fastcharge    ;04.12.2018;FEY;;LION;49;14500;7200;192;51;9;10;8400;3000;3370;3370;1;13016;27.04;27.24;31,6;BCS1388054;4;9
009639;18.12.2019;14:29:12;Stop          ;04.12.2018;FEY;;LION;49;14500;7200;224;51;95;100;8400;;4164;4162;1;13016;31.34;29.44;31,9;BCS1388054;4;9
009639;19.12.2019;08:23:58;Charge to 60% ;04.12.2018;FEY;;LION;49;14500;7200;224;51;97;100;8400;;4151;4150;1;13016;26.94;27.44;31,6;BCS1388054;4;9
009639;19.12.2019;11:30:18;Stop          ;04.12.2018;FEY;;LION;49;14500;7200;192;52;58;60;8400;3000;3676;3724;1;13014;35.24;37.44;34,6;BCS1388054;4;9
009639;19.12.2019;12:16:45;Cycle         ;04.12.2018;FEY;;LION;49;14500;7200;192;52;58;60;8400;3000;3776;3771;1;13016;31.74;29.74;32,7;BCS1388054;4;9
009639;20.12.2019;17:30:48;Stop          ;04.12.2018;FEY;;LION;49;14500;7200;224;53;95;100;8400;;4154;4154;1;13017;27.44;27.04;30,6;BCS1388054;4;9
009639;06.01.2020;06:34:50;Charge to 60% ;04.12.2018;FEY;;LION;49;14500;7200;192;53;93;98;8400;;4123;4122;1;13018;27.24;27.54;31,9;BCS1388054;4;9
009639;06.01.2020;09:30:33;Stop          ;04.12.2018;FEY;;LION;49;14500;7200;192;54;57;60;8400;3000;3770;3767;1;13015;34.24;33.24;33,7;BCS1388054;4;9
009639;06.01.2020;09:50:38;Fastcharge    ;04.12.2018;FEY;;LION;49;14500;7200;192;54;57;60;8400;3000;3781;3778;1;13016;32.74;30.54;32,7;BCS1388054;4;9
009639;06.01.2020;13:09:19;Stop          ;04.12.2018;FEY;;LION;49;14500;7200;224;54;95;100;8400;;4161;4161;1;13016;30.74;28.74;31,4;BCS1388054;4;9