File: reader/backup_20211213/009641.txt
Serialnumber ; Date ; Time ; Action ; Date of Manufacture ; Manufacturer ; Battery Name ; Device-Chemistry ; Specification-Info ; Design-Capacity [mAh] ; Design-Voltage [mV] ; Battery Status ; Cycle Count ; SOC [%] ; Relativ SOC[%] ; Desired Voltage [mV]; Desired Current [mA]; Cell Voltage 1 [mV] ; Cell Voltage 2 [mV] ; Max_Error [%] ; Busvoltage[mV] ; Battery Temperature [°C] ; Charger Temperature [°C] ; Batterysystem ; Case ; PLace
009641;10.12.2019;15:28:33;Charge to 30% ;03.12.2018;FEY;;LION;49;14500;7200;192;46;92;98;8400;;4108;4107;1;12995;23.44;26.24;27,1;BCS1388054;1;9
009641;10.12.2019;20:42:16;Stop          ;03.12.2018;FEY;;LION;49;14500;7200;192;47;29;30;8400;3000;3560;3560;1;12995;32.74;33.14;34,1;BCS1388054;1;9
009641;11.12.2019;08:48:18;Fastcharge    ;03.12.2018;FEY;;LION;49;14500;7200;192;47;29;30;8400;3000;3569;3569;1;12996;26.14;27.94;31,9;BCS1388054;1;9
009641;11.12.2019;13:40:21;Stop          ;03.12.2018;FEY;;LION;49;14500;7200;224;47;95;100;8400;;4161;4162;1;12996;29.84;29.74;32,4;BCS1388054;1;9
009641;11.12.2019;15:45:57;Charge to 30% ;03.12.2018;FEY;;LION;49;14500;7200;224;47;96;99;8400;;4153;4154;1;12996;26.94;28.24;31,5;BCS1388054;1;9
009641;11.12.2019;15:46:00;Stop          ;03.12.2018;FEY;;LION;49;14500;7200;224;47;96;99;8400;;4153;4154;1;12997;26.94;28.14;31,5;BCS1388054;1;9
009641;11.12.2019;15:46:13;Charge to 10% ;03.12.2018;FEY;;LION;49;14500;7200;224;47;96;99;8400;;4153;4154;1;12997;26.94;28.24;31,5;BCS1388054;1;9
009641;11.12.2019;22:50:20;Stop          ;03.12.2018;FEY;;LION;49;14500;7200;192;48;10;10;8400;3000;3349;3350;1;12995;33.54;32.74;33,4;BCS1388054;1;9
009641;12.12.2019;08:44:40;Normalcharge  ;03.12.2018;FEY;;LION;49;14500;7200;192;48;9;10;8400;3000;3361;3362;1;12997;26.34;28.04;31,9;BCS1388054;1;9
009641;12.12.2019;16:39:22;Stop          ;03.12.2018;FEY;;LION;49;14500;7200;224;48;96;100;8400;;4162;4162;1;12996;28.94;29.54;31,7;BCS1388054;1;9
009641;13.12.2019;10:47:47;Charge to 10% ;03.12.2018;FEY;;LION;49;14500;7200;224;48;96;100;8400;;4148;4148;1;12997;26.34;28.24;32,0;BCS1388054;1;9
009641;13.12.2019;15:41:58;Stop          ;03.12.2018;FEY;;LION;49;14500;7200;192;49;35;37;8400;3000;3502;3554;1;13624;32.34;37.74;34,6;BCS1388054;1;9
009641;13.12.2019;15:42:01;Cycle         ;03.12.2018;FEY;;LION;49;14500;7200;192;49;35;37;8400;3000;3502;3553;1;12996;32.34;37.74;34,6;BCS1388054;1;9
009641;14.12.2019;22:41:25;Stop          ;03.12.2018;FEY;;LION;49;14500;7200;224;50;93;99;8400;;4151;4151;1;12997;26.44;28.14;31,9;BCS1388054;1;9
009641;16.12.2019;07:43:03;Charge to 10% ;03.12.2018;FEY;;LION;49;14500;7200;224;50;94;100;8400;;4145;4145;1;12996;26.04;27.44;31,9;BCS1388054;1;9
009641;16.12.2019;14:36:13;Stop          ;03.12.2018;FEY;;LION;49;14500;7200;192;51;10;10;8400;3000;3363;3364;1;12996;32.24;31.84;32,4;BCS1388054;1;9
009641;16.12.2019;14:44:00;Charge to 90% ;03.12.2018;FEY;;LION;49;14500;7200;192;51;10;10;8400;3000;3365;3366;1;12996;31.64;30.54;31,7;BCS1388054;1;9
009641;16.12.2019;20:50:03;Stop          ;03.12.2018;FEY;;LION;49;14500;7200;192;51;85;90;8400;3000;4059;4060;1;12997;31.44;30.94;31,7;BCS1388054;1;9
009641;17.12.2019;08:37:36;Fastcharge    ;03.12.2018;FEY;;LION;49;14500;7200;192;51;85;90;8400;3000;4047;4048;1;12996;26.14;27.84;31,6;BCS1388054;1;9
009641;17.12.2019;10:31:11;Stop          ;03.12.2018;FEY;;LION;49;14500;7200;224;51;95;100;8400;;4158;4158;1;12997;27.64;28.74;31,4;BCS1388054;1;9
009641;17.12.2019;13:38:19;Charge to 10% ;03.12.2018;FEY;;LION;49;14500;7200;224;51;95;100;8400;;4149;4148;1;12996;26.44;27.74;30,8;BCS1388054;1;9
009641;17.12.2019;20:33:50;Stop          ;03.12.2018;FEY;;LION;49;14500;7200;192;52;10;10;8400;3000;3362;3363;1;12995;33.44;32.94;34,2;BCS1388054;1;9
009641;18.12.2019;08:31:14;Fastcharge    ;03.12.2018;FEY;;LION;49;14500;7200;192;52;10;10;8400;3000;3372;3373;1;12996;26.24;27.94;31,6;BCS1388054;1;9
009641;18.12.2019;14:28:33;Stop          ;03.12.2018;FEY;;LION;49;14500;7200;224;52;95;100;8400;;4161;4162;1;12996;29.84;29.64;31,9;BCS1388054;1;9
009641;19.12.2019;08:23:45;Charge to 60% ;03.12.2018;FEY;;LION;49;14500;7200;224;52;96;100;8400;;4149;4149;1;12996;26.14;27.84;31,5;BCS1388054;1;9
009641;19.12.2019;11:29:32;Stop          ;03.12.2018;FEY;;LION;49;14500;7200;192;53;58;60;8400;3000;3764;3766;1;12995;33.24;34.44;34,9;BCS1388054;1;9
009641;19.12.2019;12:16:33;Cycle         ;03.12.2018;FEY;;LION;49;14500;7200;192;53;58;60;8400;3000;3779;3782;1;12996;30.04;29.74;32,7;BCS1388054;1;9
009641;20.12.2019;17:26:19;Stop          ;03.12.2018;FEY;;LION;49;14500;7200;224;54;94;100;8400;;4151;4152;1;12997;26.44;27.74;31,2;BCS1388054;1;9
009641;06.01.2020;06:34:38;Charge to 60% ;03.12.2018;FEY;;LION;49;14500;7200;224;54;93;99;8400;;4122;4122;1;12997;26.24;27.84;31,9;BCS1388054;1;9
009641;06.01.2020;09:30:30;Stop          ;03.12.2018;FEY;;LION;49;14500;7200;192;54;57;60;8400;3000;3765;3768;1;12996;32.44;33.24;33,9;BCS1388054;1;9
009641;06.01.2020;09:50:27;Fastcharge    ;03.12.2018;FEY;;LION;49;14500;7200;192;54;57;60;8400;3000;3777;3780;1;12997;31.04;30.34;32,6;BCS1388054;1;9
009641;06.01.2020;13:07:36;Stop          ;03.12.2018;FEY;;LION;49;14500;7200;224;54;95;100;8400;;4160;4161;1;12996;29.24;29.44;31,7;BCS1388054;1;9