File: reader/backup_20211213/009695.txt
Serialnumber ; Date ; Time ; Action ; Date of Manufacture ; Manufacturer ; Battery Name ; Device-Chemistry ; Specification-Info ; Design-Capacity [mAh] ; Design-Voltage [mV] ; Battery Status ; Cycle Count ; SOC [%] ; Relativ SOC[%] ; Desired Voltage [mV]; Desired Current [mA]; Cell Voltage 1 [mV] ; Cell Voltage 2 [mV] ; Max_Error [%] ; Busvoltage[mV] ; Battery Temperature [°C] ; Charger Temperature [°C] ; Batterysystem ; Case ; PLace
009695;10.12.2019;15:28:33;Charge to 30% ;04.12.2018;FEY;;LION;49;14500;7200;192;48;91;98;8400;;4109;4108;1;13004;23.54;25.24;27,1;BCS1388054;1;10
009695;10.12.2019;20:42:17;Stop          ;04.12.2018;FEY;;LION;49;14500;7200;192;49;28;30;8400;3000;3563;3562;1;13002;32.34;31.84;34,1;BCS1388054;1;10
009695;11.12.2019;08:48:18;Fastcharge    ;04.12.2018;FEY;;LION;49;14500;7200;192;49;28;30;8400;3000;3570;3570;1;13002;26.14;26.94;31,9;BCS1388054;1;10
009695;11.12.2019;13:40:21;Stop          ;04.12.2018;FEY;;LION;49;14500;7200;224;49;94;100;8400;;4160;4162;1;13002;29.24;28.64;32,4;BCS1388054;1;10
009695;11.12.2019;15:45:57;Charge to 30% ;04.12.2018;FEY;;LION;49;14500;7200;224;49;95;99;8400;;4153;4153;1;13002;26.84;27.04;31,5;BCS1388054;1;10
009695;11.12.2019;15:46:00;Stop          ;04.12.2018;FEY;;LION;49;14500;7200;224;49;95;99;8400;;4153;4153;1;13003;26.84;27.04;31,5;BCS1388054;1;10
009695;11.12.2019;15:46:13;Charge to 10% ;04.12.2018;FEY;;LION;49;14500;7200;224;49;95;99;8400;;4153;4153;1;13002;26.84;27.14;31,5;BCS1388054;1;10
009695;11.12.2019;22:50:20;Stop          ;04.12.2018;FEY;;LION;49;14500;7200;192;50;10;10;8400;3000;3354;3354;1;13001;32.94;31.24;33,4;BCS1388054;1;10
009695;12.12.2019;08:44:40;Normalcharge  ;04.12.2018;FEY;;LION;49;14500;7200;192;50;9;9;8400;3000;3363;3363;1;13001;26.34;27.04;31,9;BCS1388054;1;10
009695;12.12.2019;16:39:22;Stop          ;04.12.2018;FEY;;LION;49;14500;7200;224;50;95;100;8400;;4159;4160;1;13001;28.54;28.24;31,7;BCS1388054;1;10
009695;13.12.2019;10:47:47;Charge to 10% ;04.12.2018;FEY;;LION;49;14500;7200;224;50;95;100;8400;;4148;4148;1;13002;26.34;27.14;32,0;BCS1388054;1;10
009695;13.12.2019;15:41:58;Stop          ;04.12.2018;FEY;;LION;49;14500;7200;192;51;34;36;8400;3000;3498;3549;1;13637;31.84;36.74;34,6;BCS1388054;1;10
009695;13.12.2019;15:42:01;Cycle         ;04.12.2018;FEY;;LION;49;14500;7200;192;51;34;36;8400;3000;3498;3549;1;13001;31.84;36.74;34,6;BCS1388054;1;10
009695;14.12.2019;22:41:25;Stop          ;04.12.2018;FEY;;LION;49;14500;7200;224;52;92;99;8400;;4151;4152;1;13001;26.34;27.04;31,9;BCS1388054;1;10
009695;16.12.2019;07:43:03;Charge to 10% ;04.12.2018;FEY;;LION;49;14500;7200;224;52;93;100;8400;;4146;4146;1;13002;26.04;26.34;31,9;BCS1388054;1;10
009695;16.12.2019;14:36:13;Stop          ;04.12.2018;FEY;;LION;49;14500;7200;192;53;10;10;8400;3000;3367;3367;1;13001;31.64;30.34;32,4;BCS1388054;1;10
009695;16.12.2019;14:44:00;Charge to 90% ;04.12.2018;FEY;;LION;49;14500;7200;192;53;10;10;8400;3000;3368;3368;1;13002;31.04;29.34;31,7;BCS1388054;1;10
009695;16.12.2019;20:50:03;Stop          ;04.12.2018;FEY;;LION;49;14500;7200;192;53;84;90;8400;3000;4056;4057;1;13002;30.84;29.34;31,7;BCS1388054;1;10
009695;17.12.2019;08:37:36;Fastcharge    ;04.12.2018;FEY;;LION;49;14500;7200;192;53;84;90;8400;3000;4047;4047;1;13003;26.14;26.74;31,6;BCS1388054;1;10
009695;17.12.2019;10:31:11;Stop          ;04.12.2018;FEY;;LION;49;14500;7200;224;53;94;100;8400;;4161;4162;1;13002;27.44;27.74;31,4;BCS1388054;1;10
009695;17.12.2019;13:38:19;Charge to 10% ;04.12.2018;FEY;;LION;49;14500;7200;224;53;94;100;8400;;4150;4150;1;13002;26.44;26.64;30,8;BCS1388054;1;10
009695;17.12.2019;20:33:50;Stop          ;04.12.2018;FEY;;LION;49;14500;7200;192;54;10;10;8400;3000;3365;3365;1;13001;32.84;31.44;34,2;BCS1388054;1;10
009695;18.12.2019;08:31:14;Fastcharge    ;04.12.2018;FEY;;LION;49;14500;7200;192;54;10;10;8400;3000;3374;3374;1;13002;26.24;26.84;31,6;BCS1388054;1;10
009695;18.12.2019;14:28:33;Stop          ;04.12.2018;FEY;;LION;49;14500;7200;224;54;94;100;8400;;4161;4162;1;13003;29.24;28.54;31,9;BCS1388054;1;10
009695;19.12.2019;08:23:45;Charge to 60% ;04.12.2018;FEY;;LION;49;14500;7200;224;54;95;100;8400;;4149;4149;1;13003;26.14;26.74;31,5;BCS1388054;1;10
009695;19.12.2019;11:29:32;Stop          ;04.12.2018;FEY;;LION;49;14500;7200;192;55;57;60;8400;3000;3765;3766;1;13002;32.84;32.54;34,9;BCS1388054;1;10
009695;19.12.2019;12:16:33;Cycle         ;04.12.2018;FEY;;LION;49;14500;7200;192;55;57;60;8400;3000;3775;3777;1;13003;29.74;28.64;32,7;BCS1388054;1;10
009695;20.12.2019;17:26:19;Stop          ;04.12.2018;FEY;;LION;49;14500;7200;224;56;93;100;8400;;4151;4152;1;13002;26.34;26.64;31,2;BCS1388054;1;10
009695;06.01.2020;06:34:38;Charge to 60% ;04.12.2018;FEY;;LION;49;14500;7200;224;56;92;99;8400;;4123;4123;1;13004;26.24;26.74;31,9;BCS1388054;1;10
009695;06.01.2020;09:30:30;Stop          ;04.12.2018;FEY;;LION;49;14500;7200;192;56;56;60;8400;3000;3766;3766;1;13003;32.14;31.44;33,9;BCS1388054;1;10
009695;06.01.2020;09:50:27;Fastcharge    ;04.12.2018;FEY;;LION;49;14500;7200;192;56;56;60;8400;3000;3774;3775;1;13003;30.74;29.14;32,6;BCS1388054;1;10
009695;06.01.2020;13:07:36;Stop          ;04.12.2018;FEY;;LION;49;14500;7200;224;56;94;100;8400;;4162;4163;1;13003;28.84;28.54;31,7;BCS1388054;1;10