File: reader/backup_20211213/009792.txt
Serialnumber ; Date ; Time ; Action ; Date of Manufacture ; Manufacturer ; Battery Name ; Device-Chemistry ; Specification-Info ; Design-Capacity [mAh] ; Design-Voltage [mV] ; Battery Status ; Cycle Count ; SOC [%] ; Relativ SOC[%] ; Desired Voltage [mV]; Desired Current [mA]; Cell Voltage 1 [mV] ; Cell Voltage 2 [mV] ; Max_Error [%] ; Busvoltage[mV] ; Battery Temperature [°C] ; Charger Temperature [°C] ; Batterysystem ; Case ; PLace
009792;07.12.2020;04:14:28;Cycle         ;04.12.2018;FEY;;LION;49;14500;7200;16576;3;99;98;;;4146;4147;1;13010;25.94;27.84;30,3;BCS1388054;4;10
009792;08.12.2020;16:19:56;Stop          ;04.12.2018;FEY;;LION;49;14500;7200;16576;3;99;98;;;4144;4144;1;13010;28.04;29.24;31,9;BCS1388054;4;10
009792;07.02.2021;08:46:49;Normalcharge  ;04.12.2018;FEY;;LION;49;14500;7200;16576;3;97;96;;;4120;4120;1;12998;24.04;25.84;29,2;BCS1388054;2;12
009792;07.02.2021;11:52:12;Stop          ;04.12.2018;FEY;;LION;49;14500;7200;16576;3;97;96;;;4120;4120;1;12999;26.04;26.94;29,7;BCS1388054;2;12
009792;03.03.2021;08:17:17;Normalcharge  ;04.12.2018;FEY;;LION;49;14500;7200;16576;3;95;95;;;4101;4101;1;12994;23.44;23.74;23,5;BCS1388054;2;7
009792;04.03.2021;07:53:46;Stop          ;04.12.2018;FEY;;LION;49;14500;7200;16576;3;95;95;;;4100;4101;1;12987;26.74;28.54;31,6;BCS1388054;2;7
009792;04.04.2021;11:49:55;Normalcharge  ;04.12.2018;FEY;;LION;49;14500;7200;16576;3;94;93;;;4087;4087;1;13026;25.14;25.44;27,5;BCS1388054;7;3
009792;04.04.2021;11:51:17;Stop          ;04.12.2018;FEY;;LION;49;14500;7200;16576;3;94;93;;;4087;4087;1;12752;25.14;26.34;28,4;BCS1388054;7;3
009792;22.08.2021;11:07:51;Normalcharge  ;04.12.2018;FEY;;LION;49;14500;7200;192;3;76;76;8400;3000;3901;3902;1;12990;23.04;30.04;32,0;BCS1388054;1;18
009792;22.08.2021;11:08:24;Stop          ;04.12.2018;FEY;;LION;49;14500;7200;128;3;76;76;8400;3000;3955;3927;1;12562;23.24;31.24;32,4;BCS1388054;1;18
009792;12.10.2021;12:40:28;Normalcharge  ;04.12.2018;FEY;;LION;49;14500;7200;192;3;76;76;8400;3000;3891;3891;1;13021;24.64;27.14;28,8;BCS1388054;7;11
009792;12.10.2021;12:40:39;Stop          ;04.12.2018;FEY;;LION;49;14500;7200;192;3;76;76;8400;3000;3891;3891;1;13014;24.64;27.24;28,9;BCS1388054;7;11
009792;12.10.2021;12:43:08;Normalcharge  ;04.12.2018;FEY;;LION;49;14500;7200;192;3;76;76;8400;3000;3891;3891;1;13021;24.84;27.14;29,2;BCS1388054;7;11
009792;12.10.2021;12:43:28;Stop          ;04.12.2018;FEY;;LION;49;14500;7200;192;3;76;76;8400;3000;3891;3891;1;13014;24.84;27.74;29,2;BCS1388054;7;11
009792;14.10.2021;12:40:18;Normalcharge  ;04.12.2018;FEY;;LION;49;14500;7200;192;3;76;76;8400;3000;3890;3891;1;13000;23.64;26.24;28,1;BCS1388054;6;9
009792;14.10.2021;12:41:59;Stop          ;04.12.2018;FEY;;LION;49;14500;7200;128;3;76;76;8400;3000;3986;3940;1;12633;23.84;29.84;28,5;BCS1388054;6;9