File: reader/backup_20211213/009767.txt
Serialnumber ; Date ; Time ; Action ; Date of Manufacture ; Manufacturer ; Battery Name ; Device-Chemistry ; Specification-Info ; Design-Capacity [mAh] ; Design-Voltage [mV] ; Battery Status ; Cycle Count ; SOC [%] ; Relativ SOC[%] ; Desired Voltage [mV]; Desired Current [mA]; Cell Voltage 1 [mV] ; Cell Voltage 2 [mV] ; Max_Error [%] ; Busvoltage[mV] ; Battery Temperature [°C] ; Charger Temperature [°C] ; Batterysystem ; Case ; PLace
009767;07.02.2021;08:46:53;Normalcharge  ;04.12.2018;FEY;;LION;49;14500;7200;16576;3;94;95;;;4100;4100;1;13004;23.54;25.34;29,2;BCS1388054;3;10
009767;07.02.2021;11:52:16;Stop           ;04.12.2018;FEY;;LION;49;14500;7200;16576;3;94;95;;;4100;4101;1;13004;26.04;26.94;29,7;BCS1388054;3;10
009767;03.03.2021;08:17:46;Normalcharge  ;04.12.2018;FEY;;LION;49;14500;7200;2768;4;;;8400;3000;3046;3073;1;13025;23.24;22.64;23,6;BCS1388054;7;15
009767;03.03.2021;10:54:05;Stop          ;04.12.2018;FEY;;LION;49;14500;7200;128;4;30;31;8400;3000;3674;3626;1;12692;30.94;36.44;31,4;BCS1388054;7;15
009767;06.04.2021;08:39:21;Normalcharge  ;04.12.2018;FEY;;LION;49;14500;7200;192;4;32;33;8400;3000;3568;3568;1;13034;21.34;25.64;28,1;BCS1388054;7;8
009767;06.04.2021;08:40:08;Stop          ;04.12.2018;FEY;;LION;49;14500;7200;128;4;32;33;8400;3000;3651;3604;1;12947;21.34;27.44;28,5;BCS1388054;7;8
009767;08.04.2021;07:59:03;Normalcharge  ;04.12.2018;FEY;;LION;49;14500;7200;192;4;32;33;8400;3000;3568;3569;1;13035;25.24;25.94;26,4;BCS1388054;7;8
009767;08.04.2021;07:59:16;Stop          ;04.12.2018;FEY;;LION;49;14500;7200;192;4;32;33;8400;3000;3568;3568;1;13030;25.24;26.14;26,6;BCS1388054;7;8
009767;08.04.2021;08:09:05;Charge to 60% ;04.12.2018;FEY;;LION;49;14500;7200;192;4;32;33;8400;3000;3568;3568;1;13004;25.24;26.04;27,4;BCS1388054;1;14
009767;08.04.2021;10:32:41;Stop          ;04.12.2018;FEY;;LION;49;14500;7200;192;4;58;60;8400;3000;3769;3771;1;12974;27.64;28.84;28,8;BCS1388054;1;14
009767;08.04.2021;10:34:35;Normalcharge  ;04.12.2018;FEY;;LION;49;14500;7200;192;4;58;60;8400;3000;3768;3770;1;12999;27.54;28.84;28,1;BCS1388054;1;14
009767;08.04.2021;10:36:49;Stop          ;04.12.2018;FEY;;LION;49;14500;7200;128;4;58;60;8400;3000;3858;3814;1;12882;27.64;32.74;28,9;BCS1388054;1;14
009767;18.04.2021;08:33:24;Normalcharge  ;04.12.2018;FEY;;LION;49;14500;7200;192;4;57;58;8400;3000;3751;3752;1;12998;26.34;27.04;27,7;BCS1388054;1;14
009767;18.04.2021;08:33:29;Stop          ;04.12.2018;FEY;;LION;49;14500;7200;192;4;57;58;8400;3000;3751;3752;1;12995;26.34;27.04;27,7;BCS1388054;1;14
009767;04.08.2021;07:25:01;Normalcharge  ;04.12.2018;FEY;;LION;49;14500;7200;192;4;53;54;8400;3000;3710;3710;1;12994;30.54;31.34;31,5;BCS1388054;1;14
009767;04.08.2021;07:25:57;Stop          ;04.12.2018;FEY;;LION;49;14500;7200;128;4;53;54;8400;3000;3790;3744;1;12782;30.54;33.74;31,9;BCS1388054;1;14
009767;12.10.2021;12:59:04;Normalcharge  ;04.12.2018;FEY;;LION;49;14500;7200;192;4;50;51;8400;3000;3660;3660;1;13028;23.54;27.64;28,5;BCS1388054;7;8
009767;12.10.2021;12:59:37;Stop          ;04.12.2018;FEY;;LION;49;14500;7200;128;4;50;51;8400;3000;3676;3669;1;12948;23.54;28.74;28,6;BCS1388054;7;8
009767;14.10.2021;12:40:12;Normalcharge  ;04.12.2018;FEY;;LION;49;14500;7200;192;4;50;51;8400;3000;3660;3660;1;13017;23.54;25.74;27,9;BCS1388054;5;8
009767;14.10.2021;12:41:49;Stop          ;04.12.2018;FEY;;LION;49;14500;7200;128;4;51;51;8400;3000;3750;3704;1;12665;23.64;29.24;28,5;BCS1388054;5;8
009767;01.11.2021;09:52:00;Normalcharge  ;04.12.2018;FEY;;LION;49;14500;7200;192;4;51;51;8400;3000;3659;3659;1;13014;25.84;25.94;26,3;BCS1388054;5;8
009767;01.11.2021;09:53:40;Stop          ;04.12.2018;FEY;;LION;49;14500;7200;128;4;51;51;8400;3000;3749;3702;1;12600;25.94;29.54;27,3;BCS1388054;5;8
009767;01.11.2021;10:02:19;Normalcharge  ;04.12.2018;FEY;;LION;49;14500;7200;192;4;51;51;8400;3000;3662;3662;1;13009;26.04;27.84;29,5;BCS1388054;5;8
009767;01.11.2021;10:03:11;Stop          ;04.12.2018;FEY;;LION;49;14500;7200;128;4;51;51;8400;3000;3747;3699;1;12597;26.04;29.84;29,3;BCS1388054;5;8
009767;01.11.2021;10:27:35;Normalcharge  ;04.12.2018;FEY;;LION;49;14500;7200;192;4;51;51;8400;3000;3662;3663;1;13015;26.34;26.64;27,8;BCS1388054;5;8
009767;01.11.2021;10:29:14;Stop          ;04.12.2018;FEY;;LION;49;14500;7200;128;4;51;52;8400;3000;3754;3704;1;12601;26.34;30.24;28,6;BCS1388054;5;8
009767;01.11.2021;10:32:33;Charge to 60% ;04.12.2018;FEY;;LION;49;14500;7200;192;4;51;52;8400;3000;3666;3666;1;13010;26.44;28.24;29,9;BCS1388054;5;8
009767;01.11.2021;11:11:47;Stop          ;04.12.2018;FEY;;LION;49;14500;7200;128;4;59;60;8400;3000;3848;3798;1;13009;29.14;33.74;32,5;BCS1388054;5;8