File: reader/backup_20211213/009723.txt
Serialnumber ; Date ; Time ; Action ; Date of Manufacture ; Manufacturer ; Battery Name ; Device-Chemistry ; Specification-Info ; Design-Capacity [mAh] ; Design-Voltage [mV] ; Battery Status ; Cycle Count ; SOC [%] ; Relativ SOC[%] ; Desired Voltage [mV]; Desired Current [mA]; Cell Voltage 1 [mV] ; Cell Voltage 2 [mV] ; Max_Error [%] ; Busvoltage[mV] ; Battery Temperature [°C] ; Charger Temperature [°C] ; Batterysystem ; Case ; PLace
009723;07.12.2020;04:14:25;Cycle          ;04.12.2018;FEY;;LION;49;14500;7200;192;1;97;98;8400;;4125;4125;1;13002;26.04;27.04;30,3;BCS1388054;3;18
009723;08.12.2020;16:19:50;Stop           ;04.12.2018;FEY;;LION;49;14500;7200;192;1;97;98;8400;;4123;4123;1;13000;28.04;28.74;31,9;BCS1388054;3;18
009723;12.01.2021;04:17:40;Charge to 90% ;04.12.2018;FEY;;LION;49;14500;7200;192;1;96;97;8400;;4112;4112;1;12994;23.34;24.34;23,6;BCS1388054;6;13
009723;12.01.2021;05:00:55;Stop          ;04.12.2018;FEY;;LION;49;14500;7200;192;2;90;90;8400;3000;4051;4052;1;12989;27.14;30.74;31,2;BCS1388054;6;13
009723;12.01.2021;05:21:57;Cycle         ;04.12.2018;FEY;;LION;49;14500;7200;192;2;90;90;8400;3000;4053;4054;1;12990;27.34;29.44;30,4;BCS1388054;6;13
009723;13.01.2021;08:31:18;Stop          ;04.12.2018;FEY;;LION;49;14500;7200;224;3;97;100;8400;;4155;4155;1;12990;27.34;29.34;31,1;BCS1388054;6;13
009723;22.02.2021;17:31:46;Normalcharge  ;04.12.2018;FEY;;LION;49;14500;7200;192;3;50;52;8400;3000;3666;3665;1;12990;26.14;26.84;31,6;BCS1388054;1;9
009723;22.02.2021;23:06:28;Stop          ;04.12.2018;FEY;;LION;49;14500;7200;224;3;99;100;8400;;4157;4157;1;12991;27.04;27.64;30,6;BCS1388054;1;9
009723;04.04.2021;11:50:22;Normalcharge  ;04.12.2018;FEY;;LION;49;14500;7200;192;3;95;97;8400;;4104;4104;1;13013;25.44;26.64;27,9;BCS1388054;4;10
009723;04.04.2021;11:51:36;Stop          ;04.12.2018;FEY;;LION;49;14500;7200;192;3;95;97;8400;;4104;4104;1;12723;25.44;26.94;28,6;BCS1388054;4;10
009723;04.08.2021;07:25:01;Normalcharge  ;04.12.2018;FEY;;LION;49;14500;7200;192;3;90;92;8400;3000;4056;4056;1;12993;22.04;30.44;31,5;BCS1388054;1;18
009723;04.08.2021;07:25:57;Stop          ;04.12.2018;FEY;;LION;49;14500;7200;128;3;90;92;8400;3000;4128;4097;1;12763;22.44;32.34;31,9;BCS1388054;1;18
009723;22.08.2021;11:37:13;Normalcharge  ;04.12.2018;FEY;;LION;49;14500;7200;192;3;90;91;8400;3000;4051;4051;1;13020;24.34;29.24;31,9;BCS1388054;7;6
009723;22.08.2021;11:37:48;Stop          ;04.12.2018;FEY;;LION;49;14500;7200;192;3;90;91;8400;3000;4051;4051;1;12995;24.34;30.44;31,9;BCS1388054;7;6