File: reader/backup_20211213/009764.txt
Serialnumber ; Date ; Time ; Action ; Date of Manufacture ; Manufacturer ; Battery Name ; Device-Chemistry ; Specification-Info ; Design-Capacity [mAh] ; Design-Voltage [mV] ; Battery Status ; Cycle Count ; SOC [%] ; Relativ SOC[%] ; Desired Voltage [mV]; Desired Current [mA]; Cell Voltage 1 [mV] ; Cell Voltage 2 [mV] ; Max_Error [%] ; Busvoltage[mV] ; Battery Temperature [°C] ; Charger Temperature [°C] ; Batterysystem ; Case ; PLace
009764;07.12.2020;04:14:40;Cycle         ;04.12.2018;FEY;;LION;49;14500;7200;192;3;95;95;8400;3000;4101;4101;1;13018;25.64;26.84;30,3;BCS1388054;7;15
009764;08.12.2020;16:20:20;Stop          ;04.12.2018;FEY;;LION;49;14500;7200;224;4;97;100;8400;;4153;4152;1;13018;27.74;28.34;31,9;BCS1388054;7;15
009764;03.03.2021;08:17:46;Normalcharge  ;04.12.2018;FEY;;LION;49;14500;7200;192;4;56;57;8400;3000;3721;3721;1;13031;23.24;23.34;23,6;BCS1388054;7;7
009764;03.03.2021;10:54:05;Stop          ;04.12.2018;FEY;;LION;49;14500;7200;128;4;88;90;8400;3000;4149;4103;1;12710;30.54;35.44;31,4;BCS1388054;7;7
009764;03.03.2021;10:55:49;Normalcharge  ;04.12.2018;FEY;;LION;49;14500;7200;192;4;88;90;8400;3000;4062;4063;1;13026;30.44;32.54;30,6;BCS1388054;7;7
009764;03.03.2021;17:03:24;Stop          ;04.12.2018;FEY;;LION;49;14500;7200;224;4;98;100;8400;;4153;4153;1;13025;26.44;27.74;31,4;BCS1388054;7;7
009764;04.04.2021;11:49:55;Normalcharge  ;04.12.2018;FEY;;LION;49;14500;7200;224;4;96;99;8400;;4132;4131;1;13032;25.14;26.44;27,5;BCS1388054;7;8
009764;04.04.2021;11:51:17;Stop          ;04.12.2018;FEY;;LION;49;14500;7200;224;4;96;99;8400;;4132;4132;1;12757;25.14;26.94;28,4;BCS1388054;7;8
009764;22.08.2021;11:37:25;Normalcharge  ;04.12.2018;FEY;;LION;49;14500;7200;2768;6;;;8400;3000;2639;2614;1;13012;20.94;28.04;31,9;BCS1388054;4;4
009764;22.08.2021;11:38:13;Stop          ;04.12.2018;FEY;;LION;49;14500;7200;2768;6;;;8400;3000;2639;2614;1;12650;21.04;29.74;32,1;BCS1388054;4;4
009764;25.08.2021;08:15:08;Charge to 60% ;04.12.2018;FEY;;LION;49;14500;7200;2768;6;;;8400;3000;2640;2624;1;13005;30.44;31.74;33,4;BCS1388054;4;4
009764;25.08.2021;12:59:17;Stop          ;04.12.2018;FEY;;LION;49;14500;7200;128;6;56;60;8400;3000;3779;3783;1;13003;34.84;37.44;36,6;BCS1388054;4;4
009764;01.11.2021;09:52:15;Normalcharge  ;04.12.2018;FEY;;LION;49;14500;7200;192;6;52;56;8400;3000;3712;3713;1;12999;25.84;25.64;26,3;BCS1388054;2;11
009764;01.11.2021;09:53:18;Stop          ;04.12.2018;FEY;;LION;49;14500;7200;128;6;52;56;8400;3000;3801;3754;1;12504;25.94;28.04;26,8;BCS1388054;2;11
009764;01.11.2021;10:02:05;Normalcharge  ;04.12.2018;FEY;;LION;49;14500;7200;192;6;52;56;8400;3000;3715;3716;1;12993;26.04;26.74;29,5;BCS1388054;2;11
009764;01.11.2021;10:03:24;Stop          ;04.12.2018;FEY;;LION;49;14500;7200;128;6;53;56;8400;3000;3807;3759;1;12490;26.14;29.14;29,3;BCS1388054;2;11
009764;01.11.2021;10:18:11;Normalcharge  ;04.12.2018;FEY;;LION;49;14500;7200;192;6;53;56;8400;3000;3718;3719;1;12994;26.24;26.64;28,4;BCS1388054;2;11
009764;01.11.2021;10:18:48;Stop          ;04.12.2018;FEY;;LION;49;14500;7200;128;6;53;56;8400;3000;3776;3745;1;12598;26.34;27.74;28,2;BCS1388054;2;11
009764;01.11.2021;10:28:53;Normalcharge  ;04.12.2018;FEY;;LION;49;14500;7200;192;6;53;56;8400;3000;3719;3720;1;12994;26.34;26.74;28,2;BCS1388054;2;11
009764;01.11.2021;10:29:00;Stop          ;04.12.2018;FEY;;LION;49;14500;7200;192;6;53;56;8400;3000;3719;3720;1;12981;26.34;26.74;28,4;BCS1388054;2;11
009764;01.11.2021;11:53:40;Stop          ;04.12.2018;FEY;;LION;49;14500;7200;192;6;56;60;8400;3000;3773;3776;1;12993;28.24;28.64;32,5;BCS1388054;2;11