File: reader/backup_20211213/009842.txt
Serialnumber ; Date ; Time ; Action ; Date of Manufacture ; Manufacturer ; Battery Name ; Device-Chemistry ; Specification-Info ; Design-Capacity [mAh] ; Design-Voltage [mV] ; Battery Status ; Cycle Count ; SOC [%] ; Relativ SOC[%] ; Desired Voltage [mV]; Desired Current [mA]; Cell Voltage 1 [mV] ; Cell Voltage 2 [mV] ; Max_Error [%] ; Busvoltage[mV] ; Battery Temperature [°C] ; Charger Temperature [°C] ; Batterysystem ; Case ; PLace
009842;12.01.2021;04:17:33;Charge to 90% ;03.12.2018;FEY;;LION;49;14500;7200;192;3;97;97;8400;;4128;4127;1;13000;22.64;24.04;23,6;BCS1388054;4;3
009842;12.01.2021;04:57:16;Stop          ;03.12.2018;FEY;;LION;49;14500;7200;192;3;91;90;8400;3000;4060;4059;1;12994;26.64;30.44;31,6;BCS1388054;4;3
009842;12.01.2021;05:21:49;Cycle         ;03.12.2018;FEY;;LION;49;14500;7200;192;3;91;90;8400;3000;4065;4065;1;12993;26.74;28.94;30,4;BCS1388054;4;3
009842;13.01.2021;08:19:19;Stop          ;03.12.2018;FEY;;LION;49;14500;7200;224;4;98;100;8400;;4157;4159;1;12994;26.84;28.84;30,7;BCS1388054;4;3
009842;21.02.2021;13:43:32;Normalcharge  ;03.12.2018;FEY;;LION;49;14500;7200;192;5;41;42;8400;3000;3609;3610;1;13002;22.74;25.64;27,5;BCS1388054;2;10
009842;21.02.2021;19:27:00;Stop          ;03.12.2018;FEY;;LION;49;14500;7200;224;5;98;100;8400;;4160;4164;1;13001;26.84;28.64;31,1;BCS1388054;2;10
009842;04.04.2021;11:50:28;Normalcharge  ;03.12.2018;FEY;;LION;49;14500;7200;224;5;98;99;8400;;4129;4131;1;13003;24.54;24.94;27,9;BCS1388054;3;11
009842;04.04.2021;11:51:43;Stop           ;03.12.2018;FEY;;LION;49;14500;7200;224;5;98;99;8400;;4129;4131;1;12790;24.54;25.04;28,6;BCS1388054;3;11