File: reader/backup_20211213/009801.txt
Serialnumber ; Date ; Time ; Action ; Date of Manufacture ; Manufacturer ; Battery Name ; Device-Chemistry ; Specification-Info ; Design-Capacity [mAh] ; Design-Voltage [mV] ; Battery Status ; Cycle Count ; SOC [%] ; Relativ SOC[%] ; Desired Voltage [mV]; Desired Current [mA]; Cell Voltage 1 [mV] ; Cell Voltage 2 [mV] ; Max_Error [%] ; Busvoltage[mV] ; Battery Temperature [°C] ; Charger Temperature [°C] ; Batterysystem ; Case ; PLace
009801;07.12.2020;04:14:36;Cycle         ;03.12.2018;FEY;;LION;49;14500;7200;192;3;95;97;8400;;4131;4130;1;12986;25.54;28.64;30,3;BCS1388054;6;13
009801;08.12.2020;16:20:13;Stop          ;03.12.2018;FEY;;LION;49;14500;7200;192;3;95;97;8400;;4129;4128;1;12988;27.64;30.44;31,9;BCS1388054;6;13
009801;07.02.2021;08:46:49;Normalcharge  ;03.12.2018;FEY;;LION;49;14500;7200;192;3;94;96;8400;;4109;4108;1;12984;23.64;25.74;29,2;BCS1388054;2;18
009801;07.02.2021;11:52:12;Stop          ;03.12.2018;FEY;;LION;49;14500;7200;192;3;94;96;8400;;4109;4108;1;12986;25.54;27.44;29,7;BCS1388054;2;18
009801;03.03.2021;08:17:29;Normalcharge  ;03.12.2018;FEY;;LION;49;14500;7200;192;3;90;91;8400;3000;4067;4066;1;12997;22.94;23.84;23,5;BCS1388054;4;2
009801;03.03.2021;10:32:46;Stop          ;03.12.2018;FEY;;LION;49;14500;7200;224;3;99;100;8400;;4155;4154;1;12992;27.84;30.74;32,0;BCS1388054;4;2
009801;04.04.2021;11:50:28;Normalcharge  ;03.12.2018;FEY;;LION;49;14500;7200;192;4;51;53;8400;3000;3679;3680;1;13006;24.84;26.14;27,9;BCS1388054;3;10
009801;04.04.2021;11:51:43;Stop           ;03.12.2018;FEY;;LION;49;14500;7200;128;4;51;53;8400;3000;3767;3721;1;12773;24.94;28.94;28,6;BCS1388054;3;10
009801;05.04.2021;09:38:17;Charge to 60% ;03.12.2018;FEY;;LION;49;14500;7200;192;4;51;53;8400;3000;3682;3682;1;13005;24.84;26.34;26,4;BCS1388054;5;3
009801;05.04.2021;10:34:50;Charge to 60% ;03.12.2018;FEY;;LION;49;14500;7200;192;4;57;60;8400;3000;3754;3755;1;12912;27.34;30.34;32,4;BCS1388054;5;3
009801;05.04.2021;13:16:09;Stop          ;03.12.2018;FEY;;LION;49;14500;7200;192;4;57;60;8400;3000;3751;3753;1;13000;27.44;29.94;32,2;BCS1388054;5;3
009801;22.08.2021;11:07:50;Normalcharge  ;03.12.2018;FEY;;LION;49;14500;7200;192;4;42;43;8400;3000;3612;3612;1;12990;22.14;31.04;32,0;BCS1388054;1;8
009801;22.08.2021;11:08:23;Stop          ;03.12.2018;FEY;;LION;49;14500;7200;128;4;42;43;8400;3000;3670;3638;1;12613;22.24;32.14;32,4;BCS1388054;1;8
009801;25.08.2021;08:14:57;Charge to 60% ;03.12.2018;FEY;;LION;49;14500;7200;192;4;41;43;8400;3000;3614;3614;1;12990;30.04;30.54;33,2;BCS1388054;6;6
009801;25.08.2021;09:50:39;Stop          ;03.12.2018;FEY;;LION;49;14500;7200;192;4;57;60;8400;3000;3738;3738;1;12990;33.44;32.64;36,4;BCS1388054;6;6
009801;01.11.2021;09:52:05;Normalcharge  ;03.12.2018;FEY;;LION;49;14500;7200;192;4;52;54;8400;3000;3688;3688;1;13006;24.24;25.74;26,3;BCS1388054;4;7
009801;01.11.2021;09:53:34;Stop          ;03.12.2018;FEY;;LION;49;14500;7200;128;4;52;54;8400;3000;3779;3732;1;12617;24.34;29.24;27,1;BCS1388054;4;7
009801;01.11.2021;10:02:14;Normalcharge  ;03.12.2018;FEY;;LION;49;14500;7200;192;4;52;54;8400;3000;3691;3691;1;13000;24.64;28.24;29,5;BCS1388054;4;7
009801;01.11.2021;10:03:16;Stop          ;03.12.2018;FEY;;LION;49;14500;7200;128;4;52;55;8400;3000;3778;3732;1;12599;24.74;30.44;29,3;BCS1388054;4;7
009801;01.11.2021;10:18:21;Normalcharge  ;03.12.2018;FEY;;LION;49;14500;7200;192;4;52;55;8400;3000;3693;3693;1;13008;25.14;27.34;28,4;BCS1388054;4;7
009801;01.11.2021;10:19:03;Stop          ;03.12.2018;FEY;;LION;49;14500;7200;128;4;52;55;8400;3000;3775;3728;1;12591;25.14;29.14;28,2;BCS1388054;4;7
009801;01.11.2021;10:28:22;Normalcharge  ;03.12.2018;FEY;;LION;49;14500;7200;192;4;52;55;8400;3000;3693;3694;1;13002;25.34;27.54;27,9;BCS1388054;4;7
009801;01.11.2021;10:29:09;Stop          ;03.12.2018;FEY;;LION;49;14500;7200;128;4;52;55;8400;3000;3780;3730;1;12578;25.44;29.64;28,5;BCS1388054;4;7
009801;01.11.2021;10:32:29;Charge to 60% ;03.12.2018;FEY;;LION;49;14500;7200;192;4;52;55;8400;3000;3695;3695;1;13001;25.44;28.24;29,7;BCS1388054;4;7
009801;01.11.2021;15:19:33;Stop          ;03.12.2018;FEY;;LION;49;14500;7200;192;4;57;60;8400;3000;3747;3748;1;13000;28.44;30.64;32,7;BCS1388054;4;7