File: reader/backup_20211213/009857.txt
Serialnumber ; Date ; Time ; Action ; Date of Manufacture ; Manufacturer ; Battery Name ; Device-Chemistry ; Specification-Info ; Design-Capacity [mAh] ; Design-Voltage [mV] ; Battery Status ; Cycle Count ; SOC [%] ; Relativ SOC[%] ; Desired Voltage [mV]; Desired Current [mA]; Cell Voltage 1 [mV] ; Cell Voltage 2 [mV] ; Max_Error [%] ; Busvoltage[mV] ; Battery Temperature [°C] ; Charger Temperature [°C] ; Batterysystem ; Case ; PLace
009857;10.12.2019;15:28:47;Ladung auf 30% ;03.12.2018;FEY;;LION;49;14500;7200;224;47;93;100;8400;;4131;4129;1;13005;22.54;24.24;27,1;BCS1388054;3;12
009857;10.12.2019;20:47:21;Stop           ;03.12.2018;FEY;;LION;49;14500;7200;192;48;29;30;8400;3000;3554;3553;1;13005;32.84;32.54;33,5;BCS1388054;3;12
009857;11.12.2019;08:48:36;Fastcharge    ;03.12.2018;FEY;;LION;49;14500;7200;192;48;29;30;8400;3000;3567;3567;1;13003;26.04;27.24;31,9;BCS1388054;3;12
009857;11.12.2019;13:39:41;Stop           ;03.12.2018;FEY;;LION;49;14500;7200;224;48;95;100;8400;;4163;4163;1;13004;29.14;29.44;32,5;BCS1388054;3;12
009857;11.12.2019;15:46:24;Ladung auf 10% ;03.12.2018;FEY;;LION;49;14500;7200;224;48;97;100;8400;;4154;4153;1;13004;26.74;27.64;31,4;BCS1388054;3;12
009857;11.12.2019;22:48:44;Stop           ;03.12.2018;FEY;;LION;49;14500;7200;192;49;10;10;8400;3000;3340;3340;1;13005;33.44;33.84;33,6;BCS1388054;3;12
009857;12.12.2019;08:44:58;Normalcharge  ;03.12.2018;FEY;;LION;49;14500;7200;192;49;9;10;8400;3000;3361;3361;1;13003;26.24;27.34;31,9;BCS1388054;3;12
009857;12.12.2019;16:39:24;Stop           ;03.12.2018;FEY;;LION;49;14500;7200;224;49;97;100;8400;;4164;4164;1;13004;28.44;29.04;31,7;BCS1388054;3;12
009857;13.12.2019;10:47:57;Ladung auf 10% ;03.12.2018;FEY;;LION;49;14500;7200;224;49;97;100;8400;;4149;4148;1;13005;26.24;27.44;32,0;BCS1388054;3;12
009857;13.12.2019;15:42:18;Stop           ;03.12.2018;FEY;;LION;49;14500;7200;192;50;35;37;8400;3000;3503;3554;1;13552;32.04;34.34;34,6;BCS1388054;3;12
009857;13.12.2019;15:42:20;Cycle          ;03.12.2018;FEY;;LION;49;14500;7200;192;50;35;37;8400;3000;3503;3554;1;13003;32.04;34.34;34,6;BCS1388054;3;12
009857;14.12.2019;22:36:33;Stop           ;03.12.2018;FEY;;LION;49;14500;7200;224;51;94;99;8400;;4152;4152;1;13003;26.24;27.34;31,6;BCS1388054;3;12
009857;16.12.2019;07:43:10;Ladung auf 10% ;03.12.2018;FEY;;LION;49;14500;7200;224;51;94;100;8400;;4146;4146;1;13004;25.94;26.64;31,9;BCS1388054;3;12
009857;16.12.2019;14:34:27;Stop           ;03.12.2018;FEY;;LION;49;14500;7200;192;52;10;10;8400;3000;3358;3358;1;13005;32.04;32.04;32,5;BCS1388054;3;12
009857;16.12.2019;14:44:07;Ladung auf 90% ;03.12.2018;FEY;;LION;49;14500;7200;192;52;10;10;8400;3000;3366;3366;1;13005;31.14;30.44;31,7;BCS1388054;3;12
009857;16.12.2019;20:48:39;Stop           ;03.12.2018;FEY;;LION;49;14500;7200;128;52;85;90;8400;3000;4067;4070;1;13005;30.84;30.94;31,9;BCS1388054;3;12
009857;17.12.2019;08:37:44;Fastcharge    ;03.12.2018;FEY;;LION;49;14500;7200;192;52;85;90;8400;3000;4048;4049;1;13005;26.04;27.14;31,5;BCS1388054;3;12
009857;17.12.2019;10:30:44;Stop           ;03.12.2018;FEY;;LION;49;14500;7200;224;52;95;100;8400;;4161;4161;1;13006;27.44;28.24;31,4;BCS1388054;3;12
009857;17.12.2019;13:38:28;Ladung auf 10% ;03.12.2018;FEY;;LION;49;14500;7200;224;52;95;100;8400;;4151;4150;1;13006;26.24;27.34;30,8;BCS1388054;3;12
009857;17.12.2019;20:32:04;Stop           ;03.12.2018;FEY;;LION;49;14500;7200;192;53;10;10;8400;3000;3358;3358;1;13005;33.44;33.24;34,6;BCS1388054;3;12
009857;18.12.2019;08:31:22;Fastcharge    ;03.12.2018;FEY;;LION;49;14500;7200;192;53;10;10;8400;3000;3373;3373;1;13003;26.14;27.34;31,6;BCS1388054;3;12
009857;18.12.2019;14:26:33;Stop           ;03.12.2018;FEY;;LION;49;14500;7200;224;53;95;100;8400;;4162;4162;1;13004;29.14;29.64;32,5;BCS1388054;3;12
009857;19.12.2019;08:23:54;Ladung auf 60% ;03.12.2018;FEY;;LION;49;14500;7200;224;53;96;100;8400;;4149;4149;1;13004;26.04;27.14;31,6;BCS1388054;3;12
009857;19.12.2019;11:28:29;Stop           ;03.12.2018;FEY;;LION;49;14500;7200;192;54;58;60;8400;3000;3755;3756;1;13005;33.44;34.84;35,1;BCS1388054;3;12
009857;19.12.2019;12:16:41;Cycle          ;03.12.2018;FEY;;LION;49;14500;7200;192;54;58;60;8400;3000;3779;3780;1;13005;29.44;29.54;32,7;BCS1388054;3;12
009857;20.12.2019;17:23:28;Stop           ;03.12.2018;FEY;;LION;49;14500;7200;224;55;94;100;8400;;4153;4152;1;13004;26.34;27.44;31,9;BCS1388054;3;12
009857;06.01.2020;06:34:46;Ladung auf 60% ;03.12.2018;FEY;;LION;49;14500;7200;224;55;93;99;8400;;4123;4121;1;13005;26.14;27.14;31,9;BCS1388054;3;12
009857;06.01.2020;09:29:20;Stop           ;03.12.2018;FEY;;LION;49;14500;7200;192;55;57;60;8400;3000;3761;3762;1;13005;32.64;33.04;34,2;BCS1388054;3;12
009857;06.01.2020;09:50:34;Fastcharge    ;03.12.2018;FEY;;LION;49;14500;7200;192;55;57;60;8400;3000;3778;3779;1;13006;30.74;30.24;32,7;BCS1388054;3;12
009857;06.01.2020;13:06:26;Stop           ;03.12.2018;FEY;;LION;49;14500;7200;224;55;95;100;8400;;4163;4165;1;13006;28.74;29.14;32,1;BCS1388054;3;12