File: reader/backup_20211213/009840.txt
Serialnumber ; Date ; Time ; Action ; Date of Manufacture ; Manufacturer ; Battery Name ; Device-Chemistry ; Specification-Info ; Design-Capacity [mAh] ; Design-Voltage [mV] ; Battery Status ; Cycle Count ; SOC [%] ; Relativ SOC[%] ; Desired Voltage [mV]; Desired Current [mA]; Cell Voltage 1 [mV] ; Cell Voltage 2 [mV] ; Max_Error [%] ; Busvoltage[mV] ; Battery Temperature [°C] ; Charger Temperature [°C] ; Batterysystem ; Case ; PLace
009840;07.12.2020;04:14:21;Cycle         ;03.12.2018;FEY;;LION;49;14500;7200;224;2;98;99;8400;;4146;4144;1;12997;25.14;28.04;30,3;BCS1388054;2;17
009840;08.12.2020;16:19:44;Stop          ;03.12.2018;FEY;;LION;49;14500;7200;224;3;98;100;8400;;4153;4150;1;12996;27.14;29.54;31,9;BCS1388054;2;17
009840;03.03.2021;08:17:40;Normalcharge  ;03.12.2018;FEY;;LION;49;14500;7200;192;3;69;71;8400;3000;3858;3856;1;13006;22.54;23.74;23,6;BCS1388054;6;9
009840;03.03.2021;11:56:52;Stop          ;03.12.2018;FEY;;LION;49;14500;7200;224;3;97;100;8400;;4159;4158;1;12998;28.14;29.44;31,7;BCS1388054;6;9
009840;06.04.2021;08:38:40;Normalcharge  ;03.12.2018;FEY;;LION;49;14500;7200;224;3;96;99;8400;;4133;4132;1;12996;20.74;25.24;28,1;BCS1388054;1;2
009840;06.04.2021;08:39:29;Stop          ;03.12.2018;FEY;;LION;49;14500;7200;224;3;96;99;8400;;4133;4132;1;12994;20.84;25.94;28,2;BCS1388054;1;2
009840;08.04.2021;07:57:52;Normalcharge  ;03.12.2018;FEY;;LION;49;14500;7200;224;3;96;99;8400;;4133;4131;1;12995;24.64;25.24;26,3;BCS1388054;1;2
009840;08.04.2021;07:59:50;Stop          ;03.12.2018;FEY;;LION;49;14500;7200;224;3;96;99;8400;;4133;4131;1;12941;24.64;26.74;26,8;BCS1388054;1;2
009840;08.04.2021;10:34:34;Normalcharge  ;03.12.2018;FEY;;LION;49;14500;7200;224;3;96;99;8400;;4133;4131;1;12990;25.64;28.24;28,1;BCS1388054;1;2
009840;08.04.2021;10:36:49;Stop          ;03.12.2018;FEY;;LION;49;14500;7200;224;3;96;99;8400;;4133;4131;1;12879;25.64;28.54;28,9;BCS1388054;1;2
009840;18.04.2021;08:33:24;Normalcharge  ;03.12.2018;FEY;;LION;49;14500;7200;224;3;95;99;8400;;4129;4127;1;12994;25.64;26.84;27,7;BCS1388054;1;2
009840;18.04.2021;08:33:29;Stop          ;03.12.2018;FEY;;LION;49;14500;7200;224;3;95;99;8400;;4129;4127;1;12990;25.64;26.94;27,7;BCS1388054;1;2
009840;04.08.2021;07:25:01;Normalcharge  ;03.12.2018;FEY;;LION;49;14500;7200;192;3;93;96;8400;;4095;4094;1;12987;30.04;31.54;31,5;BCS1388054;1;2
009840;04.08.2021;07:25:57;Stop          ;03.12.2018;FEY;;LION;49;14500;7200;192;3;93;96;8400;;4095;4094;1;12784;30.04;32.04;31,9;BCS1388054;1;2
009840;22.08.2021;11:08:05;Normalcharge  ;03.12.2018;FEY;;LION;49;14500;7200;192;3;86;88;8400;3000;4019;4017;1;12998;21.74;28.74;32,1;BCS1388054;4;9
009840;22.08.2021;11:08:37;Stop          ;03.12.2018;FEY;;LION;49;14500;7200;128;3;86;88;8400;3000;4052;4034;1;12681;21.84;29.74;32,5;BCS1388054;4;9
009840;14.10.2021;12:39:52;Normalcharge  ;03.12.2018;FEY;;LION;49;14500;7200;192;3;83;85;8400;3000;3979;3977;1;13011;24.64;26.24;27,9;BCS1388054;1;16
009840;14.10.2021;12:41:15;Stop          ;03.12.2018;FEY;;LION;49;14500;7200;128;3;83;85;8400;3000;4077;4028;1;12464;24.64;29.24;28,2;BCS1388054;1;16