File: reader/Batterieverzeichnis/001029.txt
Serialnumber ; Date ; Time ; Action ; Date of Manufacture ; Manufacturer ; Battery Name ; Device-Chemistry ; Specification-Info ; Design-Capacity [mAh] ; Design-Voltage [mV] ; Battery Status ; Cycle Count ; SOC [%] ; Relativ SOC[%] ; Desired Voltage [mV]; Desired Current [mA]; Cell Voltage 1 [mV] ; Cell Voltage 2 [mV] ; Max_Error [%] ; Busvoltage[mV] ; Battery Temperature [°C] ; Charger Temperature [°C] ; Batterysystem ; Case ; PLace
001029;10.12.2019;15:29:15;Charge to 30% ;28.11.2017;FEY;;LION;49;14500;7200;224;27;92;99;8400;;4120;4120;1;13040;22.34;24.44;27,1;BCS1388054;7;14
001029;10.12.2019;20:46:56;Stop          ;28.11.2017;FEY;;LION;49;14500;7200;192;28;28;30;8400;3000;3555;3556;1;13037;33.04;32.94;33,5;BCS1388054;7;14
001029;11.12.2019;08:49:12;Fastcharge    ;28.11.2017;FEY;;LION;49;14500;7200;192;28;28;30;8400;3000;3562;3562;1;13036;25.84;27.34;31,9;BCS1388054;7;14
001029;11.12.2019;13:38:42;Stop          ;28.11.2017;FEY;;LION;49;14500;7200;224;28;94;100;8400;;4160;4160;1;13037;30.04;29.74;32,7;BCS1388054;7;14
001029;11.12.2019;15:46:56;Charge to 10% ;28.11.2017;FEY;;LION;49;14500;7200;224;28;95;100;8400;;4153;4153;1;13037;26.84;27.64;31,2;BCS1388054;7;14
001029;11.12.2019;22:51:50;Stop          ;28.11.2017;FEY;;LION;49;14500;7200;192;29;10;10;8400;3000;3354;3355;1;13036;33.64;32.44;33,0;BCS1388054;7;14
001029;12.12.2019;08:45:27;Normalcharge  ;28.11.2017;FEY;;LION;49;14500;7200;192;29;9;10;8400;3000;3361;3362;1;13036;26.14;27.54;31,7;BCS1388054;7;14
001029;12.12.2019;16:41:08;Stop          ;28.11.2017;FEY;;LION;49;14500;7200;224;29;94;100;8400;;4160;4160;1;13037;29.04;29.04;31,6;BCS1388054;7;14
001029;13.12.2019;10:48:13;Charge to 10% ;28.11.2017;FEY;;LION;49;14500;7200;224;29;94;100;8400;;4150;4149;1;13038;26.14;27.54;32,0;BCS1388054;7;14
001029;13.12.2019;13:48:48;Stop          ;28.11.2017;FEY;;LION;49;14500;7200;192;29;57;60;8400;3000;3675;3727;1;13543;34.34;41.94;36,8;BCS1388054;7;14
001029;16.12.2019;07:43:34;Charge to 10% ;28.11.2017;FEY;;LION;49;14500;7200;192;29;58;62;8400;3000;3779;3779;1;13031;22.64;26.64;31,7;BCS1388054;7;13
001029;16.12.2019;11:52:34;Stop          ;28.11.2017;FEY;;LION;49;14500;7200;192;30;10;10;8400;3000;3354;3356;1;13029;32.14;32.34;34,7;BCS1388054;7;13
001029;16.12.2019;14:44:25;Charge to 90% ;28.11.2017;FEY;;LION;49;14500;7200;192;30;9;10;8400;3000;3359;3360;1;13029;28.64;29.54;31,7;BCS1388054;7;13
001029;16.12.2019;20:53:59;Stop          ;28.11.2017;FEY;;LION;49;14500;7200;192;30;82;90;8400;3000;4030;4029;1;13031;30.84;30.74;32,1;BCS1388054;7;13
001029;17.12.2019;08:38:02;Fastcharge    ;28.11.2017;FEY;;LION;49;14500;7200;192;30;83;90;8400;3000;4024;4022;1;13030;25.94;27.54;31,6;BCS1388054;7;13
001029;17.12.2019;10:36:25;Stop          ;28.11.2017;FEY;;LION;49;14500;7200;224;30;92;100;8400;;4163;4161;1;13030;27.84;30.04;31,5;BCS1388054;7;13
001029;17.12.2019;13:38:44;Charge to 10% ;28.11.2017;FEY;;LION;49;14500;7200;224;30;92;100;8400;;4151;4148;1;13030;26.34;27.74;30,8;BCS1388054;7;13
001029;17.12.2019;20:42:03;Stop          ;28.11.2017;FEY;;LION;49;14500;7200;192;31;10;10;8400;3000;3357;3358;1;13030;32.94;32.24;32,6;BCS1388054;7;13
001029;18.12.2019;08:31:43;Fastcharge    ;28.11.2017;FEY;;LION;49;14500;7200;192;31;9;10;8400;3000;3365;3365;1;13029;26.04;27.74;31,6;BCS1388054;7;13
001029;18.12.2019;14:30:48;Stop          ;28.11.2017;FEY;;LION;49;14500;7200;224;31;91;100;8400;;4159;4155;1;13029;29.54;29.74;31,6;BCS1388054;7;13
001029;19.12.2019;08:24:17;Charge to 60% ;28.11.2017;FEY;;LION;49;14500;7200;224;31;92;100;8400;;4149;4145;1;13030;26.04;27.54;31,6;BCS1388054;7;13
001029;19.12.2019;11:28:26;Stop          ;28.11.2017;FEY;;LION;49;14500;7200;192;32;56;60;8400;3000;3770;3768;1;13029;33.34;34.74;35,1;BCS1388054;7;13
001029;19.12.2019;12:16:57;Cycle         ;28.11.2017;FEY;;LION;49;14500;7200;192;32;56;60;8400;3000;3780;3777;1;13030;29.74;29.74;32,7;BCS1388054;7;13
001029;20.12.2019;17:22:28;Stop          ;28.11.2017;FEY;;LION;49;14500;7200;224;33;93;100;8400;;4152;4151;1;13030;26.34;27.94;31,9;BCS1388054;7;13
001029;06.01.2020;06:35:02;Charge to 60% ;28.11.2017;FEY;;LION;49;14500;7200;224;33;91;99;8400;;4122;4121;1;13031;26.14;27.74;31,9;BCS1388054;7;13
001029;06.01.2020;09:29:52;Stop          ;28.11.2017;FEY;;LION;49;14500;7200;192;33;56;60;8400;3000;3761;3762;1;13029;32.54;34.34;34,0;BCS1388054;7;13
001029;06.01.2020;09:50:50;Fastcharge    ;28.11.2017;FEY;;LION;49;14500;7200;192;33;56;60;8400;3000;3771;3771;1;13030;30.94;30.34;32,7;BCS1388054;7;13
001029;06.01.2020;13:05:11;Stop          ;28.11.2017;FEY;;LION;49;14500;7200;224;33;93;100;8400;;4161;4160;1;13029;29.14;30.34;32,4;BCS1388054;7;13