File: reader/Batterieverzeichnis/001070.txt
Serialnumber ; Date ; Time ; Action ; Date of Manufacture ; Manufacturer ; Battery Name ; Device-Chemistry ; Specification-Info ; Design-Capacity [mAh] ; Design-Voltage [mV] ; Battery Status ; Cycle Count ; SOC [%] ; Relativ SOC[%] ; Desired Voltage [mV]; Desired Current [mA]; Cell Voltage 1 [mV] ; Cell Voltage 2 [mV] ; Max_Error [%] ; Busvoltage[mV] ; Battery Temperature [°C] ; Charger Temperature [°C] ; Batterysystem ; Case ; PLace
001070;10.12.2019;15:29:15;Charge to 30% ;15.02.2018;FEY;;LION;49;14500;7200;224;21;93;99;8400;;4124;4122;1;13032;22.14;24.24;27,1;BCS1388054;7;4
001070;10.12.2019;20:46:56;Stop          ;15.02.2018;FEY;;LION;49;14500;7200;192;22;29;30;8400;3000;3560;3557;1;13031;31.54;30.94;33,5;BCS1388054;7;4
001070;11.12.2019;08:49:12;Fastcharge    ;15.02.2018;FEY;;LION;49;14500;7200;192;22;29;30;8400;3000;3568;3565;1;13032;25.54;27.14;31,9;BCS1388054;7;4
001070;11.12.2019;13:38:42;Stop          ;15.02.2018;FEY;;LION;49;14500;7200;224;22;94;100;8400;;4162;4163;1;13032;28.54;28.84;32,7;BCS1388054;7;4
001070;11.12.2019;15:46:56;Charge to 10% ;15.02.2018;FEY;;LION;49;14500;7200;224;22;96;100;8400;;4155;4155;1;13032;26.24;27.34;31,2;BCS1388054;7;4
001070;11.12.2019;22:51:50;Stop          ;15.02.2018;FEY;;LION;49;14500;7200;192;23;10;10;8400;3000;3356;3352;1;13032;32.04;30.74;33,0;BCS1388054;7;4
001070;12.12.2019;08:45:27;Normalcharge  ;15.02.2018;FEY;;LION;49;14500;7200;192;23;9;9;8400;3000;3364;3361;1;13032;25.74;27.24;31,7;BCS1388054;7;4
001070;12.12.2019;16:41:08;Stop          ;15.02.2018;FEY;;LION;49;14500;7200;224;23;95;100;8400;;4161;4159;1;13031;27.94;28.24;31,6;BCS1388054;7;4
001070;13.12.2019;10:48:13;Charge to 10% ;15.02.2018;FEY;;LION;49;14500;7200;224;23;95;100;8400;;4150;4148;1;13032;25.84;27.34;32,0;BCS1388054;7;4
001070;13.12.2019;13:48:48;Stop          ;15.02.2018;FEY;;LION;49;14500;7200;192;24;58;61;8400;3000;3689;3732;1;13534;32.84;37.84;36,8;BCS1388054;7;4
001070;16.12.2019;07:43:34;Charge to 10% ;15.02.2018;FEY;;LION;49;14500;7200;192;24;60;63;8400;3000;3790;3785;1;13023;22.34;26.54;31,7;BCS1388054;7;7
001070;16.12.2019;11:52:34;Stop          ;15.02.2018;FEY;;LION;49;14500;7200;192;25;10;10;8400;3000;3358;3353;1;13021;31.84;32.04;34,7;BCS1388054;7;7
001070;16.12.2019;14:44:25;Charge to 90% ;15.02.2018;FEY;;LION;49;14500;7200;192;25;9;10;8400;3000;3363;3358;1;13022;28.34;29.34;31,7;BCS1388054;7;7
001070;16.12.2019;20:53:58;Stop          ;15.02.2018;FEY;;LION;49;14500;7200;192;25;83;90;8400;3000;4032;4029;1;13022;30.24;30.54;32,1;BCS1388054;7;7
001070;17.12.2019;08:38:01;Fastcharge    ;15.02.2018;FEY;;LION;49;14500;7200;192;25;84;90;8400;3000;4025;4021;1;13023;25.84;27.64;31,6;BCS1388054;7;7
001070;17.12.2019;10:36:25;Stop          ;15.02.2018;FEY;;LION;49;14500;7200;224;25;93;100;8400;;4161;4157;1;13023;27.44;28.74;31,5;BCS1388054;7;7
001070;17.12.2019;13:38:44;Charge to 10% ;15.02.2018;FEY;;LION;49;14500;7200;224;25;93;100;8400;;4154;4149;1;13022;26.14;27.74;30,8;BCS1388054;7;7
001070;17.12.2019;20:42:03;Stop          ;15.02.2018;FEY;;LION;49;14500;7200;192;26;10;10;8400;3000;3357;3352;1;13022;32.44;31.84;32,6;BCS1388054;7;7
001070;18.12.2019;08:31:43;Fastcharge    ;15.02.2018;FEY;;LION;49;14500;7200;192;26;9;9;8400;3000;3366;3361;1;13022;25.94;27.74;31,6;BCS1388054;7;7
001070;18.12.2019;14:30:48;Stop          ;15.02.2018;FEY;;LION;49;14500;7200;224;26;92;100;8400;;4163;4157;1;13022;28.94;29.54;31,6;BCS1388054;7;7
001070;19.12.2019;08:24:17;Charge to 60% ;15.02.2018;FEY;;LION;49;14500;7200;224;26;94;100;8400;;4152;4146;1;13022;25.84;27.74;31,6;BCS1388054;7;7
001070;19.12.2019;11:28:26;Stop          ;15.02.2018;FEY;;LION;49;14500;7200;192;26;57;60;8400;3000;3775;3766;1;13022;32.74;34.24;35,1;BCS1388054;7;7
001070;19.12.2019;12:16:57;Cycle         ;15.02.2018;FEY;;LION;49;14500;7200;192;26;57;60;8400;3000;3788;3779;1;13023;29.14;29.64;32,7;BCS1388054;7;7
001070;20.12.2019;17:22:28;Stop          ;15.02.2018;FEY;;LION;49;14500;7200;224;27;93;100;8400;;4155;4152;1;13022;26.14;27.94;31,9;BCS1388054;7;7
001070;06.01.2020;06:35:02;Charge to 60% ;15.02.2018;FEY;;LION;49;14500;7200;192;27;92;98;8400;;4125;4122;1;13023;26.04;27.74;31,9;BCS1388054;7;7
001070;06.01.2020;09:29:52;Stop          ;15.02.2018;FEY;;LION;49;14500;7200;192;28;56;60;8400;3000;3772;3766;1;13023;31.94;33.44;34,0;BCS1388054;7;7
001070;06.01.2020;09:50:50;Fastcharge    ;15.02.2018;FEY;;LION;49;14500;7200;192;28;56;60;8400;3000;3783;3777;1;13024;30.24;30.04;32,7;BCS1388054;7;7
001070;06.01.2020;13:05:11;Stop          ;15.02.2018;FEY;;LION;49;14500;7200;224;28;94;100;8400;;4161;4160;1;13023;28.74;29.64;32,4;BCS1388054;7;7