File: reader/Batterieverzeichnis/001085.txt
Serialnumber ; Date ; Time ; Action ; Date of Manufacture ; Manufacturer ; Battery Name ; Device-Chemistry ; Specification-Info ; Design-Capacity [mAh] ; Design-Voltage [mV] ; Battery Status ; Cycle Count ; SOC [%] ; Relativ SOC[%] ; Desired Voltage [mV]; Desired Current [mA]; Cell Voltage 1 [mV] ; Cell Voltage 2 [mV] ; Max_Error [%] ; Busvoltage[mV] ; Battery Temperature [°C] ; Charger Temperature [°C] ; Batterysystem ; Case ; PLace
001085;10.12.2019;15:29:09;Charge to 30% ;15.02.2018;FEY;;LION;49;14500;7200;224;10;94;99;8400;;4123;4123;1;13022;22.54;25.04;27,1;BCS1388054;6;11
001085;10.12.2019;20:46:41;Stop          ;15.02.2018;FEY;;LION;49;14500;7200;192;11;29;30;8400;3000;3550;3550;1;13020;32.74;34.74;33,6;BCS1388054;6;11
001085;11.12.2019;08:49:03;Fastcharge    ;15.02.2018;FEY;;LION;49;14500;7200;192;11;29;30;8400;3000;3567;3568;1;13022;26.24;27.74;31,9;BCS1388054;6;11
001085;11.12.2019;13:39:30;Stop          ;15.02.2018;FEY;;LION;49;14500;7200;224;11;96;100;8400;;4164;4163;1;13020;29.54;29.54;32,5;BCS1388054;6;11
001085;11.12.2019;15:46:47;Charge to 10% ;15.02.2018;FEY;;LION;49;14500;7200;224;11;97;100;8400;;4157;4157;1;13022;26.94;27.84;31,4;BCS1388054;6;11
001085;11.12.2019;22:52:10;Stop          ;15.02.2018;FEY;;LION;49;14500;7200;192;12;10;10;8400;3000;3260;3311;1;13020;33.44;35.34;33,0;BCS1388054;6;11
001085;12.12.2019;08:45:18;Normalcharge  ;15.02.2018;FEY;;LION;49;14500;7200;192;12;9;9;8400;3000;3363;3364;1;13022;26.44;27.74;31,7;BCS1388054;6;11
001085;12.12.2019;16:41:29;Stop          ;15.02.2018;FEY;;LION;49;14500;7200;224;12;97;100;8400;;4163;4163;1;13021;28.84;28.94;31,5;BCS1388054;6;11
001085;13.12.2019;10:48:09;Charge to 10% ;15.02.2018;FEY;;LION;49;14500;7200;224;12;97;100;8400;;4152;4151;1;13022;26.44;28.04;32,0;BCS1388054;6;11
001085;13.12.2019;13:51:54;Stop          ;15.02.2018;FEY;;LION;49;14500;7200;192;13;59;61;8400;3000;3690;3739;1;13514;33.84;37.74;36,1;BCS1388054;6;11
001085;13.12.2019;13:53:13;Fastcharge    ;15.02.2018;FEY;;LION;49;14500;7200;192;13;59;61;8400;3000;3772;3773;1;13018;33.84;35.64;35,8;BCS1388054;6;11
001085;13.12.2019;13:53:19;Stop          ;15.02.2018;FEY;;LION;49;14500;7200;192;13;59;61;8400;3000;3772;3773;1;13010;33.84;35.44;35,8;BCS1388054;6;11
001085;13.12.2019;13:53:25;Normalcharge  ;15.02.2018;FEY;;LION;49;14500;7200;192;13;59;61;8400;3000;3772;3773;1;13018;33.84;35.44;35,8;BCS1388054;6;11
001085;13.12.2019;20:04:59;Stop          ;15.02.2018;FEY;;LION;49;14500;7200;224;13;97;100;8400;;4156;4156;1;13022;27.74;28.84;32,0;BCS1388054;6;11
001085;16.12.2019;07:43:27;Charge to 10% ;15.02.2018;FEY;;LION;49;14500;7200;224;13;97;100;8400;;4148;4148;1;13022;26.24;26.54;31,7;BCS1388054;6;11
001085;16.12.2019;14:43:10;Stop          ;15.02.2018;FEY;;LION;49;14500;7200;192;14;10;10;8400;3000;3345;3347;1;13023;31.34;32.94;31,7;BCS1388054;6;11
001085;16.12.2019;14:44:21;Charge to 90% ;15.02.2018;FEY;;LION;49;14500;7200;192;14;10;10;8400;3000;3352;3354;1;13023;31.34;30.64;31,9;BCS1388054;6;11
001085;16.12.2019;20:54:26;Stop          ;15.02.2018;FEY;;LION;49;14500;7200;128;14;86;90;8400;3000;4143;4098;1;13022;31.34;33.94;32,1;BCS1388054;6;11
001085;17.12.2019;08:37:57;Fastcharge    ;15.02.2018;FEY;;LION;49;14500;7200;192;14;86;90;8400;3000;4044;4045;1;13023;26.34;27.64;31,6;BCS1388054;6;11
001085;17.12.2019;13:38:40;Charge to 10% ;15.02.2018;FEY;;LION;49;14500;7200;224;14;97;100;8400;;4154;4156;1;13022;26.64;27.64;30,8;BCS1388054;6;11
001085;17.12.2019;20:41:41;Stop          ;15.02.2018;FEY;;LION;49;14500;7200;192;15;10;10;8400;3000;3345;3348;1;13021;33.34;34.54;32,6;BCS1388054;6;11
001085;18.12.2019;08:31:34;Fastcharge    ;15.02.2018;FEY;;LION;49;14500;7200;192;15;9;9;8400;3000;3364;3366;1;13022;26.44;27.64;31,6;BCS1388054;6;11
001085;18.12.2019;14:33:31;Stop          ;15.02.2018;FEY;;LION;49;14500;7200;224;15;96;100;8400;;4162;4166;1;13023;29.44;29.14;31,4;BCS1388054;6;11
001085;19.12.2019;08:24:06;Charge to 60% ;15.02.2018;FEY;;LION;49;14500;7200;224;15;97;100;8400;;4152;4155;1;13023;26.34;27.74;31,5;BCS1388054;6;11
001085;19.12.2019;11:34:24;Stop          ;15.02.2018;FEY;;LION;49;14500;7200;192;16;58;60;8400;3000;3771;3775;1;13022;33.04;32.14;33,5;BCS1388054;6;11
001085;19.12.2019;12:16:53;Cycle         ;15.02.2018;FEY;;LION;49;14500;7200;192;16;58;60;8400;3000;3782;3786;1;13023;29.84;29.64;32,7;BCS1388054;6;11
001085;20.12.2019;17:31:05;Stop          ;15.02.2018;FEY;;LION;49;14500;7200;224;17;95;100;8400;;4155;4154;1;13024;26.64;27.44;30,6;BCS1388054;6;11
001085;06.01.2020;06:34:58;Charge to 60% ;15.02.2018;FEY;;LION;49;14500;7200;192;17;94;98;8400;;4124;4123;1;13024;26.54;27.74;31,9;BCS1388054;6;11
001085;06.01.2020;09:30:42;Stop          ;15.02.2018;FEY;;LION;49;14500;7200;192;18;58;60;8400;3000;3760;3761;1;13022;32.44;34.24;33,7;BCS1388054;6;11
001085;06.01.2020;09:50:46;Fastcharge    ;15.02.2018;FEY;;LION;49;14500;7200;192;18;58;60;8400;3000;3780;3782;1;13023;30.84;30.24;32,7;BCS1388054;6;11
001085;06.01.2020;13:06:22;Stop          ;15.02.2018;FEY;;LION;49;14500;7200;224;18;96;100;8400;;4160;4160;1;13025;29.04;29.14;32,1;BCS1388054;6;11