File: reader/Batterieverzeichnis/009545.txt
Serialnumber ; Date ; Time ; Action ; Date of Manufacture ; Manufacturer ; Battery Name ; Device-Chemistry ; Specification-Info ; Design-Capacity [mAh] ; Design-Voltage [mV] ; Battery Status ; Cycle Count ; SOC [%] ; Relativ SOC[%] ; Desired Voltage [mV]; Desired Current [mA]; Cell Voltage 1 [mV] ; Cell Voltage 2 [mV] ; Max_Error [%] ; Busvoltage[mV] ; Battery Temperature [°C] ; Charger Temperature [°C] ; Batterysystem ; Case ; PLace
009545;12.01.2021;04:17:22;Charge to 90% ;03.12.2018;FEY;;LION;49;14500;7200;192;3;95;95;8400;3000;4108;4107;1;12993;22.64;24.04;23,5;BCS1388054;2;7
009545;12.01.2021;04:54:21;Stop          ;03.12.2018;FEY;;LION;49;14500;7200;192;3;90;90;8400;3000;4055;4055;1;12986;25.84;31.14;31,9;BCS1388054;2;7
009545;12.01.2021;05:21:40;Cycle         ;03.12.2018;FEY;;LION;49;14500;7200;192;3;90;90;8400;3000;4059;4058;1;12987;26.44;29.14;30,6;BCS1388054;2;7
009545;13.01.2021;08:20:19;Stop          ;03.12.2018;FEY;;LION;49;14500;7200;224;5;96;100;8400;;4154;4155;1;12987;26.74;28.84;30,8;BCS1388054;2;7
009545;21.02.2021;13:43:48;Normalcharge  ;03.12.2018;FEY;;LION;49;14500;7200;192;5;51;53;8400;3000;3680;3680;1;13004;22.64;23.04;27,7;BCS1388054;3;6
009545;21.02.2021;20:44:52;Stop           ;03.12.2018;FEY;;LION;49;14500;7200;224;5;97;100;8400;;4152;4153;1;12998;26.04;26.64;31,2;BCS1388054;3;6
009545;06.04.2021;08:39:16;Normalcharge  ;03.12.2018;FEY;;LION;49;14500;7200;224;5;96;99;8400;;4127;4128;1;13013;20.94;25.94;28,1;BCS1388054;6;17
009545;06.04.2021;08:40:04;Stop          ;03.12.2018;FEY;;LION;49;14500;7200;224;5;96;99;8400;;4127;4128;1;12993;20.94;26.04;28,5;BCS1388054;6;17
009545;08.04.2021;07:58:44;Normalcharge  ;03.12.2018;FEY;;LION;49;14500;7200;224;5;96;99;8400;;4127;4127;1;13017;24.74;25.74;26,4;BCS1388054;6;17
009545;08.04.2021;07:59:23;Stop          ;03.12.2018;FEY;;LION;49;14500;7200;224;5;96;99;8400;;4127;4127;1;13015;24.74;26.14;26,7;BCS1388054;6;17
009545;08.04.2021;10:36:16;Normalcharge  ;03.12.2018;FEY;;LION;49;14500;7200;224;5;96;99;8400;;4127;4127;1;13015;24.94;26.74;28,6;BCS1388054;6;17
009545;08.04.2021;10:37:11;Stop          ;03.12.2018;FEY;;LION;49;14500;7200;224;5;96;99;8400;;4127;4127;1;12994;24.94;27.04;29,2;BCS1388054;6;17
009545;18.04.2021;08:34:33;Normalcharge  ;03.12.2018;FEY;;LION;49;14500;7200;224;5;96;99;8400;;4123;4124;1;13017;25.64;27.54;28,2;BCS1388054;6;17
009545;18.04.2021;08:34:41;Stop          ;03.12.2018;FEY;;LION;49;14500;7200;224;5;96;99;8400;;4123;4124;1;13016;25.64;27.54;28,2;BCS1388054;6;17
009545;04.08.2021;07:24:35;Normalcharge  ;03.12.2018;FEY;;LION;49;14500;7200;192;5;93;96;8400;;4092;4092;1;13011;29.74;31.14;31,5;BCS1388054;6;17
009545;04.08.2021;07:25:17;Stop          ;03.12.2018;FEY;;LION;49;14500;7200;192;5;93;96;8400;;4092;4092;1;12994;29.74;31.44;31,6;BCS1388054;6;17
009545;22.08.2021;11:37:17;Normalcharge  ;03.12.2018;FEY;;LION;49;14500;7200;192;5;90;93;8400;3000;4069;4070;1;12990;22.14;29.34;31,9;BCS1388054;6;18
009545;22.08.2021;11:37:57;Stop          ;03.12.2018;FEY;;LION;49;14500;7200;128;5;90;93;8400;3000;4100;4088;1;12833;22.24;30.84;32,0;BCS1388054;6;18
009545;14.10.2021;12:39:57;Normalcharge  ;03.12.2018;FEY;;LION;49;14500;7200;192;5;89;93;8400;3000;4054;4055;1;13000;25.04;26.74;27,9;BCS1388054;2;2
009545;14.10.2021;12:41:24;Stop          ;03.12.2018;FEY;;LION;49;14500;7200;128;5;89;93;8400;3000;4127;4097;1;12584;25.04;30.24;28,2;BCS1388054;2;2
009545;01.11.2021;09:52:11;Normalcharge  ;03.12.2018;FEY;;LION;49;14500;7200;192;5;76;80;8400;3000;3925;3925;1;13011;23.94;24.84;26,4;BCS1388054;3;15
009545;01.11.2021;09:53:27;Stop           ;03.12.2018;FEY;;LION;49;14500;7200;128;5;76;80;8400;3000;4018;3972;1;12600;23.94;28.14;27,1;BCS1388054;3;15
009545;01.11.2021;10:02:09;Normalcharge  ;03.12.2018;FEY;;LION;49;14500;7200;192;5;76;80;8400;3000;3927;3927;1;13004;24.24;27.24;29,5;BCS1388054;3;15
009545;01.11.2021;10:03:20;Stop           ;03.12.2018;FEY;;LION;49;14500;7200;128;5;76;80;8400;3000;4021;3974;1;12602;24.34;29.84;29,5;BCS1388054;3;15
009545;07.02.2022;08:51:04;Normalcharge  ;03.12.2018;FEY;;LION;49;14500;7200;192;5;76;80;8400;3000;3905;3905;1;13006;21.94;22.74;25,1;BCS1388054;3;9
009545;07.02.2022;14:32:56;Stop           ;03.12.2018;FEY;;LION;49;14500;7200;224;5;96;100;8400;;4147;4148;1;13002;25.24;26.44;30,8;BCS1388054;3;9
009545;14.03.2022;12:14:36;Normalcharge  ;03.12.2018;FEY;;LION;49;14500;7200;224;5;95;99;8400;;4128;4128;1;13007;24.14;25.14;27,7;BCS1388054;3;5
009545;14.03.2022;12:18:51;Stop           ;03.12.2018;FEY;;LION;49;14500;7200;224;5;95;99;8400;;4128;4128;1;12971;24.14;25.74;29,5;BCS1388054;3;5