File: reader/Batterieverzeichnis/009508.txt
Serialnumber ; Date ; Time ; Action ; Date of Manufacture ; Manufacturer ; Battery Name ; Device-Chemistry ; Specification-Info ; Design-Capacity [mAh] ; Design-Voltage [mV] ; Battery Status ; Cycle Count ; SOC [%] ; Relativ SOC[%] ; Desired Voltage [mV]; Desired Current [mA]; Cell Voltage 1 [mV] ; Cell Voltage 2 [mV] ; Max_Error [%] ; Busvoltage[mV] ; Battery Temperature [°C] ; Charger Temperature [°C] ; Batterysystem ; Case ; PLace
009508;30.11.2020;09:42:55;Stop          ;03.12.2018;FEY;;LION;49;14500;7200;16576;2;99;99;;;4162;4160;1;13019;27.54;29.04;31,7;BCS1388054;7;17
009508;12.01.2021;04:17:22;Charge to 90% ;03.12.2018;FEY;;LION;49;14500;7200;16576;2;97;98;;;4138;4137;1;13011;23.24;24.34;23,5;BCS1388054;2;3
009508;12.01.2021;04:54:21;Stop          ;03.12.2018;FEY;;LION;49;14500;7200;192;2;90;90;8400;3000;4055;4054;1;13004;26.84;32.54;31,9;BCS1388054;2;3
009508;12.01.2021;05:21:40;Cycle         ;03.12.2018;FEY;;LION;49;14500;7200;192;2;90;90;8400;3000;4066;4065;1;13006;27.14;29.44;30,6;BCS1388054;2;3
009508;13.01.2021;08:20:19;Stop          ;03.12.2018;FEY;;LION;49;14500;7200;224;3;98;100;8400;;4156;4158;1;13006;27.14;29.24;30,8;BCS1388054;2;3
009508;21.02.2021;13:44:56;Normalcharge  ;03.12.2018;FEY;;LION;49;14500;7200;192;4;40;41;8400;3000;3605;3606;1;13009;22.94;23.24;27,7;BCS1388054;5;12
009508;21.02.2021;19:31:36;Stop          ;03.12.2018;FEY;;LION;49;14500;7200;224;4;98;100;8400;;4160;4160;1;13005;26.94;27.04;30,6;BCS1388054;5;12
009508;06.04.2021;08:39:21;Normalcharge  ;03.12.2018;FEY;;LION;49;14500;7200;224;4;98;99;8400;;4127;4127;1;13026;21.64;25.14;28,1;BCS1388054;7;17
009508;06.04.2021;08:40:09;Stop          ;03.12.2018;FEY;;LION;49;14500;7200;224;4;98;99;8400;;4127;4127;1;12947;21.64;25.34;28,5;BCS1388054;7;17
009508;08.04.2021;07:59:03;Normalcharge  ;03.12.2018;FEY;;LION;49;14500;7200;224;4;97;99;8400;;4127;4127;1;13026;25.24;25.44;26,4;BCS1388054;7;17
009508;08.04.2021;07:59:16;Stop          ;03.12.2018;FEY;;LION;49;14500;7200;224;4;97;99;8400;;4127;4127;1;13025;25.24;25.54;26,6;BCS1388054;7;17
009508;08.04.2021;10:36:43;Normalcharge  ;03.12.2018;FEY;;LION;49;14500;7200;224;4;97;99;8400;;4127;4127;1;13029;25.44;26.44;28,9;BCS1388054;7;17
009508;08.04.2021;10:37:15;Stop          ;03.12.2018;FEY;;LION;49;14500;7200;224;4;97;99;8400;;4127;4127;1;12963;25.44;26.64;29,2;BCS1388054;7;17
009508;18.04.2021;08:34:46;Normalcharge  ;03.12.2018;FEY;;LION;49;14500;7200;224;4;97;99;8400;;4123;4123;1;13024;26.14;27.24;28,2;BCS1388054;7;17
009508;18.04.2021;08:34:54;Stop          ;03.12.2018;FEY;;LION;49;14500;7200;224;4;97;99;8400;;4123;4123;1;13021;26.14;27.24;28,4;BCS1388054;7;17
009508;04.08.2021;07:24:29;Normalcharge  ;03.12.2018;FEY;;LION;49;14500;7200;192;4;95;96;8400;;4093;4093;1;13021;30.04;30.64;31,5;BCS1388054;7;17
009508;04.08.2021;07:25:08;Stop          ;03.12.2018;FEY;;LION;49;14500;7200;192;4;95;96;8400;;4093;4093;1;12973;30.14;30.94;31,6;BCS1388054;7;17
009508;14.10.2021;12:40:04;Normalcharge  ;03.12.2018;FEY;;LION;49;14500;7200;192;4;76;78;8400;3000;3914;3914;1;13014;25.44;26.14;27,9;BCS1388054;3;15
009508;14.10.2021;12:41:33;Stop           ;03.12.2018;FEY;;LION;49;14500;7200;128;4;76;78;8400;3000;4007;3961;1;12613;25.54;29.74;28,4;BCS1388054;3;15
009508;07.02.2022;08:50:57;Normalcharge  ;03.12.2018;FEY;;LION;49;14500;7200;192;4;76;78;8400;3000;3891;3891;1;12996;22.34;23.34;25,1;BCS1388054;4;2
009508;07.02.2022;13:19:09;Stop          ;03.12.2018;FEY;;LION;49;14500;7200;224;4;98;100;8400;;4152;4153;1;12993;27.24;28.84;29,7;BCS1388054;4;2
009508;14.03.2022;10:33:51;Normalcharge  ;03.12.2018;FEY;;LION;49;14500;7200;224;4;97;99;8400;;4131;4131;1;13012;24.24;25.04;25,3;BCS1388054;5;4
009508;14.03.2022;10:38:12;Stop          ;03.12.2018;FEY;;LION;49;14500;7200;224;4;97;99;8400;;4131;4132;1;12707;24.24;26.74;28,1;BCS1388054;5;4