File: reader/Batterieverzeichnis/009509.txt
Serialnumber ; Date ; Time ; Action ; Date of Manufacture ; Manufacturer ; Battery Name ; Device-Chemistry ; Specification-Info ; Design-Capacity [mAh] ; Design-Voltage [mV] ; Battery Status ; Cycle Count ; SOC [%] ; Relativ SOC[%] ; Desired Voltage [mV]; Desired Current [mA]; Cell Voltage 1 [mV] ; Cell Voltage 2 [mV] ; Max_Error [%] ; Busvoltage[mV] ; Battery Temperature [°C] ; Charger Temperature [°C] ; Batterysystem ; Case ; PLace
009509;01.12.2020;07:38:36;Cycle         ;04.12.2018;FEY;;LION;49;14500;7200;192;1;77;79;8400;3000;3917;3917;1;13008;25.34;26.14;28,8;BCS1388054;2;4
009509;02.12.2020;16:21:01;Stop          ;04.12.2018;FEY;;LION;49;14500;7200;224;2;96;100;8400;;4154;4155;1;13001;26.44;28.34;29,3;BCS1388054;2;4
009509;03.03.2021;08:17:29;Normalcharge  ;04.12.2018;FEY;;LION;49;14500;7200;192;2;83;87;8400;3000;4004;4004;1;13005;23.14;23.14;23,5;BCS1388054;4;14
009509;03.03.2021;10:32:46;Stop          ;04.12.2018;FEY;;LION;49;14500;7200;224;2;96;100;8400;;4158;4158;1;12998;28.44;29.64;32,0;BCS1388054;4;14
009509;04.04.2021;11:50:02;Normalcharge  ;04.12.2018;FEY;;LION;49;14500;7200;224;2;95;99;8400;;4135;4135;1;13007;24.84;24.94;27,7;BCS1388054;6;5
009509;04.04.2021;11:51:24;Stop          ;04.12.2018;FEY;;LION;49;14500;7200;224;2;95;99;8400;;4135;4134;1;12675;24.84;25.34;28,5;BCS1388054;6;5
009509;22.08.2021;11:07:51;Normalcharge  ;04.12.2018;FEY;;LION;49;14500;7200;192;3;80;84;8400;3000;3959;3959;1;12985;22.34;29.84;32,0;BCS1388054;1;11
009509;22.08.2021;11:08:23;Stop          ;04.12.2018;FEY;;LION;49;14500;7200;128;3;80;84;8400;3000;4005;3980;1;12585;22.44;30.74;32,4;BCS1388054;1;11
009509;14.10.2021;12:40:03;Normalcharge  ;04.12.2018;FEY;;LION;49;14500;7200;192;3;78;82;8400;3000;3945;3945;1;13001;25.04;26.04;27,9;BCS1388054;3;7
009509;14.10.2021;12:41:32;Stop           ;04.12.2018;FEY;;LION;49;14500;7200;128;3;78;82;8400;3000;4037;3991;1;12617;25.14;29.34;28,4;BCS1388054;3;7
009509;07.02.2022;08:51:51;Normalcharge  ;04.12.2018;FEY;;LION;49;14500;7200;192;3;77;81;8400;3000;3918;3918;1;13004;22.24;22.84;25,6;BCS1388054;1;17
009509;07.02.2022;13:16:30;Stop          ;04.12.2018;FEY;;LION;49;14500;7200;224;3;96;100;8400;;4150;4151;1;13001;25.24;26.44;31,2;BCS1388054;1;17
009509;14.03.2022;12:14:44;Normalcharge  ;04.12.2018;FEY;;LION;49;14500;7200;224;3;94;99;8400;;4130;4130;1;12999;24.34;25.24;27,7;BCS1388054;1;18
009509;14.03.2022;12:15:19;Stop          ;04.12.2018;FEY;;LION;49;14500;7200;224;3;94;99;8400;;4130;4130;1;12999;24.34;25.34;27,9;BCS1388054;1;18
009509;14.03.2022;12:15:29;Normalcharge  ;04.12.2018;FEY;;LION;49;14500;7200;224;3;94;99;8400;;4130;4130;1;12999;24.34;25.34;28,1;BCS1388054;1;18
009509;14.03.2022;12:16:01;Stop          ;04.12.2018;FEY;;LION;49;14500;7200;224;3;94;99;8400;;4130;4130;1;12998;24.34;25.44;28,4;BCS1388054;1;18
009509;14.03.2022;12:17:43;Normalcharge  ;04.12.2018;FEY;;LION;49;14500;7200;224;3;94;99;8400;;4130;4130;1;12997;24.44;25.64;29,2;BCS1388054;1;18
009509;14.03.2022;12:18:20;Stop          ;04.12.2018;FEY;;LION;49;14500;7200;224;3;94;99;8400;;4130;4130;1;12996;24.44;25.64;29,3;BCS1388054;1;18
009509;14.03.2022;12:19:16;Normalcharge  ;04.12.2018;FEY;;LION;49;14500;7200;224;3;94;99;8400;;4130;4130;1;12997;24.44;25.84;29,5;BCS1388054;1;18
009509;14.03.2022;12:19:20;Stop          ;04.12.2018;FEY;;LION;49;14500;7200;224;3;94;99;8400;;4130;4130;1;12997;24.44;25.84;29,6;BCS1388054;1;18
009509;29.03.2022;08:21:11;Normalcharge  ;04.12.2018;FEY;;LION;49;14500;7200;224;3;94;99;8400;;4124;4124;1;13015;24.64;25.04;25,8;BCS1388054;1;16
009509;29.03.2022;08:21:52;Stop          ;04.12.2018;FEY;;LION;49;14500;7200;224;3;94;99;8400;;4124;4125;1;12726;24.74;25.34;26,0;BCS1388054;1;16
009509;29.03.2022;08:22:01;Normalcharge  ;04.12.2018;FEY;;LION;49;14500;7200;224;3;94;99;8400;;4124;4124;1;13013;24.64;25.34;26,1;BCS1388054;1;16
009509;29.03.2022;08:22:51;Stop          ;04.12.2018;FEY;;LION;49;14500;7200;224;3;94;99;8400;;4124;4124;1;12726;24.64;25.64;26,6;BCS1388054;1;16