File: reader/Batterieverzeichnis/009597.txt
Serialnumber ; Date ; Time ; Action ; Date of Manufacture ; Manufacturer ; Battery Name ; Device-Chemistry ; Specification-Info ; Design-Capacity [mAh] ; Design-Voltage [mV] ; Battery Status ; Cycle Count ; SOC [%] ; Relativ SOC[%] ; Desired Voltage [mV]; Desired Current [mA]; Cell Voltage 1 [mV] ; Cell Voltage 2 [mV] ; Max_Error [%] ; Busvoltage[mV] ; Battery Temperature [°C] ; Charger Temperature [°C] ; Batterysystem ; Case ; PLace
009597;07.12.2020;04:14:28;Cycle         ;04.12.2018;FEY;;LION;49;14500;7200;192;3;98;98;8400;;4150;4151;1;13007;25.94;28.04;30,3;BCS1388054;4;1
009597;08.12.2020;16:19:56;Stop          ;04.12.2018;FEY;;LION;49;14500;7200;192;3;98;98;8400;;4147;4148;1;13007;28.04;29.64;31,9;BCS1388054;4;1
009597;12.01.2021;04:17:33;Charge to 90% ;04.12.2018;FEY;;LION;49;14500;7200;192;3;96;97;8400;;4131;4132;1;13019;23.34;22.64;23,6;BCS1388054;4;18
009597;12.01.2021;04:57:16;Stop          ;04.12.2018;FEY;;LION;49;14500;7200;192;3;90;90;8400;3000;4059;4060;1;13014;27.84;28.24;31,6;BCS1388054;4;18
009597;12.01.2021;05:21:49;Cycle         ;04.12.2018;FEY;;LION;49;14500;7200;192;3;90;90;8400;3000;4064;4065;1;13016;27.44;26.84;30,4;BCS1388054;4;18
009597;13.01.2021;08:19:19;Stop          ;04.12.2018;FEY;;LION;49;14500;7200;224;5;96;100;8400;;4154;4156;1;13016;27.04;26.84;30,7;BCS1388054;4;18
009597;22.02.2021;17:31:59;Normalcharge  ;04.12.2018;FEY;;LION;49;14500;7200;192;5;56;58;8400;3000;3715;3717;1;13004;26.54;26.64;31,6;BCS1388054;2;5
009597;22.02.2021;21:53:27;Stop          ;04.12.2018;FEY;;LION;49;14500;7200;224;5;97;100;8400;;4163;4163;1;13006;27.24;28.44;31,7;BCS1388054;2;5
009597;06.04.2021;08:39:03;Normalcharge  ;04.12.2018;FEY;;LION;49;14500;7200;224;5;95;99;8400;;4127;4127;1;12992;21.64;24.94;28,1;BCS1388054;4;11
009597;06.04.2021;08:39:53;Stop          ;04.12.2018;FEY;;LION;49;14500;7200;224;5;95;99;8400;;4127;4127;1;12991;21.64;25.04;28,4;BCS1388054;4;11
009597;08.04.2021;07:58:12;Normalcharge  ;04.12.2018;FEY;;LION;49;14500;7200;224;5;94;99;8400;;4127;4127;1;12998;25.54;24.64;26,3;BCS1388054;4;11
009597;08.04.2021;07:59:34;Stop          ;04.12.2018;FEY;;LION;49;14500;7200;224;5;94;99;8400;;4127;4127;1;12979;25.54;25.64;26,7;BCS1388054;4;11
009597;08.04.2021;10:36:07;Normalcharge  ;04.12.2018;FEY;;LION;49;14500;7200;224;5;94;99;8400;;4127;4127;1;12993;25.74;25.84;28,5;BCS1388054;4;11
009597;08.04.2021;10:37:03;Stop          ;04.12.2018;FEY;;LION;49;14500;7200;224;5;94;99;8400;;4127;4127;1;12971;25.74;26.04;29,0;BCS1388054;4;11
009597;18.04.2021;08:34:04;Normalcharge  ;04.12.2018;FEY;;LION;49;14500;7200;224;5;94;99;8400;;4123;4123;1;12996;26.44;26.64;27,9;BCS1388054;4;11
009597;18.04.2021;08:34:10;Stop          ;04.12.2018;FEY;;LION;49;14500;7200;224;5;94;99;8400;;4123;4123;1;12995;26.44;26.64;28,1;BCS1388054;4;11
009597;04.08.2021;07:24:46;Normalcharge  ;04.12.2018;FEY;;LION;49;14500;7200;192;5;92;96;8400;;4091;4091;1;12990;30.54;30.74;31,5;BCS1388054;4;11
009597;04.08.2021;07:25:30;Stop          ;04.12.2018;FEY;;LION;49;14500;7200;192;5;92;96;8400;;4091;4091;1;12968;30.54;30.94;31,7;BCS1388054;4;11
009597;22.08.2021;11:08:04;Normalcharge  ;04.12.2018;FEY;;LION;49;14500;7200;192;5;91;94;8400;3000;4080;4079;1;12991;22.84;29.94;32,1;BCS1388054;4;5
009597;22.08.2021;11:08:37;Stop          ;04.12.2018;FEY;;LION;49;14500;7200;128;5;91;94;8400;3000;4121;4104;1;12679;22.94;30.94;32,5;BCS1388054;4;5
009597;12.10.2021;12:15:20;Normalcharge  ;04.12.2018;FEY;;LION;49;14500;7200;192;5;84;87;8400;3000;3998;3998;1;12991;24.54;26.54;27,9;BCS1388054;1;9
009597;12.10.2021;12:15:34;Stop          ;04.12.2018;FEY;;LION;49;14500;7200;192;5;84;87;8400;3000;3997;3998;1;12977;24.54;27.04;27,9;BCS1388054;1;9
009597;14.10.2021;12:40:07;Normalcharge  ;04.12.2018;FEY;;LION;49;14500;7200;192;5;84;87;8400;3000;3998;3998;1;12995;25.24;26.64;27,9;BCS1388054;4;5
009597;14.10.2021;12:41:43;Stop          ;04.12.2018;FEY;;LION;49;14500;7200;128;5;84;87;8400;3000;4092;4048;1;12653;25.34;29.54;28,4;BCS1388054;4;5
009597;28.12.2021;09:01:25;Normalcharge  ;04.12.2018;FEY;;LION;49;14500;7200;192;5;79;82;8400;3000;3947;3947;1;13009;24.14;25.04;25,3;BCS1388054;3;13
009597;28.12.2021;09:02:24;Stop           ;04.12.2018;FEY;;LION;49;14500;7200;128;5;79;82;8400;3000;4040;3994;1;12566;24.14;27.54;25,8;BCS1388054;3;13
009597;07.02.2022;08:50:47;Normalcharge  ;04.12.2018;FEY;;LION;49;14500;7200;192;5;79;82;8400;3000;3936;3936;1;13007;22.44;21.44;25,0;BCS1388054;6;12
009597;13.02.2022;10:58:25;Normalcharge  ;04.12.2018;FEY;;LION;49;14500;7200;224;5;96;100;8400;;4138;4138;1;13019;23.04;22.54;26,1;BCS1388054;3;3
009597;13.02.2022;17:19:51;Stop           ;04.12.2018;FEY;;LION;49;14500;7200;224;5;96;100;8400;;4137;4137;1;13011;25.44;26.64;29,0;BCS1388054;3;3