File: reader/Batterieverzeichnis/009591.txt
Serialnumber ; Date ; Time ; Action ; Date of Manufacture ; Manufacturer ; Battery Name ; Device-Chemistry ; Specification-Info ; Design-Capacity [mAh] ; Design-Voltage [mV] ; Battery Status ; Cycle Count ; SOC [%] ; Relativ SOC[%] ; Desired Voltage [mV]; Desired Current [mA]; Cell Voltage 1 [mV] ; Cell Voltage 2 [mV] ; Max_Error [%] ; Busvoltage[mV] ; Battery Temperature [°C] ; Charger Temperature [°C] ; Batterysystem ; Case ; PLace
009591;29.11.2020;04:25:09;Cycle         ;03.12.2018;FEY;;LION;49;14500;7200;192;3;20;20;8400;3000;3471;3469;1;13003;24.74;26.14;25,6;BCS1388054;1;3
009591;07.02.2021;08:47:00;Normalcharge  ;03.12.2018;FEY;;LION;49;14500;7200;192;4;89;92;8400;3000;4051;4050;1;13012;23.14;25.84;29,2;BCS1388054;4;10
009591;07.02.2021;11:52:20;Stop          ;03.12.2018;FEY;;LION;49;14500;7200;224;4;98;100;8400;;4151;4149;1;13011;25.44;27.04;29,7;BCS1388054;4;10
009591;03.03.2021;08:17:21;Normalcharge  ;03.12.2018;FEY;;LION;49;14500;7200;192;4;89;92;8400;3000;4063;4062;1;13023;22.74;22.74;23,5;BCS1388054;3;14
009591;04.03.2021;07:53:40;Stop           ;03.12.2018;FEY;;LION;49;14500;7200;224;4;97;100;8400;;4147;4146;1;13015;26.14;27.74;31,5;BCS1388054;3;14
009591;04.04.2021;11:50:02;Normalcharge  ;03.12.2018;FEY;;LION;49;14500;7200;192;5;52;54;8400;3000;3690;3687;1;13012;24.54;26.24;27,7;BCS1388054;6;3
009591;04.04.2021;11:51:24;Stop          ;03.12.2018;FEY;;LION;49;14500;7200;128;5;52;54;8400;3000;3777;3728;1;12689;24.54;29.74;28,5;BCS1388054;6;3
009591;05.04.2021;09:38:11;Charge to 60% ;03.12.2018;FEY;;LION;49;14500;7200;192;5;52;54;8400;3000;3692;3689;1;13010;24.54;26.24;26,3;BCS1388054;4;1
009591;05.04.2021;10:13:52;Stop          ;03.12.2018;FEY;;LION;49;14500;7200;192;5;57;60;8400;3000;3761;3754;1;13008;26.84;29.54;32,1;BCS1388054;4;1
009591;22.08.2021;11:07:50;Normalcharge  ;03.12.2018;FEY;;LION;49;14500;7200;192;5;43;45;8400;3000;3619;3617;1;12991;21.84;30.14;32,0;BCS1388054;1;5
009591;22.08.2021;11:08:23;Stop          ;03.12.2018;FEY;;LION;49;14500;7200;128;5;43;45;8400;3000;3669;3640;1;12621;21.94;31.04;32,4;BCS1388054;1;5
009591;25.08.2021;08:14:57;Charge to 60% ;03.12.2018;FEY;;LION;49;14500;7200;192;5;43;45;8400;3000;3621;3619;1;12996;29.84;31.84;33,2;BCS1388054;6;11
009591;25.08.2021;09:50:39;Stop          ;03.12.2018;FEY;;LION;49;14500;7200;192;5;58;60;8400;3000;3737;3734;1;12997;33.54;34.34;36,4;BCS1388054;6;11
009591;01.11.2021;09:52:06;Normalcharge  ;03.12.2018;FEY;;LION;49;14500;7200;192;5;54;56;8400;3000;3704;3702;1;13004;24.04;24.94;26,3;BCS1388054;4;13
009591;01.11.2021;09:53:35;Stop          ;03.12.2018;FEY;;LION;49;14500;7200;128;5;54;56;8400;3000;3795;3746;1;12609;24.14;28.74;27,1;BCS1388054;4;13
009591;01.11.2021;10:02:14;Normalcharge  ;03.12.2018;FEY;;LION;49;14500;7200;192;5;54;56;8400;3000;3708;3705;1;12999;24.44;27.14;29,5;BCS1388054;4;13
009591;01.11.2021;10:03:16;Stop          ;03.12.2018;FEY;;LION;49;14500;7200;128;5;54;56;8400;3000;3795;3747;1;12588;24.54;29.74;29,3;BCS1388054;4;13
009591;01.11.2021;10:18:21;Normalcharge  ;03.12.2018;FEY;;LION;49;14500;7200;192;5;54;56;8400;3000;3710;3707;1;13000;24.94;26.54;28,4;BCS1388054;4;13
009591;01.11.2021;10:19:03;Stop          ;03.12.2018;FEY;;LION;49;14500;7200;128;5;54;56;8400;3000;3786;3740;1;12568;24.94;28.34;28,2;BCS1388054;4;13
009591;01.11.2021;10:28:22;Normalcharge  ;03.12.2018;FEY;;LION;49;14500;7200;192;5;54;56;8400;3000;3711;3708;1;13006;25.14;26.74;27,9;BCS1388054;4;13
009591;01.11.2021;10:29:09;Stop          ;03.12.2018;FEY;;LION;49;14500;7200;128;5;54;56;8400;3000;3792;3744;1;12579;25.14;28.74;28,5;BCS1388054;4;13