File: reader/Batterieverzeichnis/009594.txt
Serialnumber ; Date ; Time ; Action ; Date of Manufacture ; Manufacturer ; Battery Name ; Device-Chemistry ; Specification-Info ; Design-Capacity [mAh] ; Design-Voltage [mV] ; Battery Status ; Cycle Count ; SOC [%] ; Relativ SOC[%] ; Desired Voltage [mV]; Desired Current [mA]; Cell Voltage 1 [mV] ; Cell Voltage 2 [mV] ; Max_Error [%] ; Busvoltage[mV] ; Battery Temperature [°C] ; Charger Temperature [°C] ; Batterysystem ; Case ; PLace
009594;07.12.2020;04:14:40;Cycle         ;03.12.2018;FEY;;LION;49;14500;7200;192;1;96;97;8400;;4136;4135;1;13031;25.04;27.54;30,3;BCS1388054;7;5
009594;08.12.2020;16:20:20;Stop          ;03.12.2018;FEY;;LION;49;14500;7200;192;1;96;97;8400;;4134;4133;1;13031;26.94;28.74;31,9;BCS1388054;7;5
009594;12.01.2021;04:17:36;Charge to 90% ;03.12.2018;FEY;;LION;49;14500;7200;192;1;96;97;8400;;4121;4120;1;13014;22.44;23.74;23,6;BCS1388054;5;4
009594;12.01.2021;05:15:37;Stop          ;03.12.2018;FEY;;LION;49;14500;7200;192;1;90;90;8400;3000;4061;4061;1;13007;26.64;28.64;31,6;BCS1388054;5;4
009594;12.01.2021;05:21:53;Cycle         ;03.12.2018;FEY;;LION;49;14500;7200;192;1;90;90;8400;3000;4062;4061;1;13008;26.64;28.04;30,6;BCS1388054;5;4
009594;13.01.2021;08:31:10;Stop          ;03.12.2018;FEY;;LION;49;14500;7200;224;2;98;100;8400;;4156;4155;1;13008;26.34;28.14;31,1;BCS1388054;5;4
009594;21.02.2021;13:45:29;Normalcharge  ;03.12.2018;FEY;;LION;49;14500;7200;224;2;97;99;8400;;4131;4131;1;13003;22.34;22.84;27,8;BCS1388054;6;7
009594;06.04.2021;08:39:21;Normalcharge  ;03.12.2018;FEY;;LION;49;14500;7200;192;2;95;97;8400;;4113;4113;1;13023;20.94;24.04;28,1;BCS1388054;7;15
009594;06.04.2021;08:40:08;Stop          ;03.12.2018;FEY;;LION;49;14500;7200;192;2;95;97;8400;;4113;4112;1;12934;21.04;24.44;28,5;BCS1388054;7;15
009594;08.04.2021;07:59:03;Normalcharge  ;03.12.2018;FEY;;LION;49;14500;7200;192;2;95;97;8400;;4113;4112;1;13022;24.54;24.44;26,4;BCS1388054;7;15
009594;08.04.2021;07:59:16;Stop          ;03.12.2018;FEY;;LION;49;14500;7200;192;2;95;97;8400;;4113;4112;1;13021;24.54;24.44;26,6;BCS1388054;7;15
009594;08.04.2021;10:36:43;Normalcharge  ;03.12.2018;FEY;;LION;49;14500;7200;192;2;95;97;8400;;4113;4112;1;13017;24.74;25.34;28,9;BCS1388054;7;15
009594;08.04.2021;10:37:15;Stop          ;03.12.2018;FEY;;LION;49;14500;7200;192;2;95;97;8400;;4113;4112;1;12944;24.74;25.54;29,2;BCS1388054;7;15
009594;18.04.2021;08:34:46;Normalcharge  ;03.12.2018;FEY;;LION;49;14500;7200;192;2;95;97;8400;;4110;4109;1;13021;25.44;26.14;28,2;BCS1388054;7;15
009594;18.04.2021;08:34:54;Stop          ;03.12.2018;FEY;;LION;49;14500;7200;192;2;95;97;8400;;4110;4109;1;13017;25.44;26.14;28,4;BCS1388054;7;15
009594;04.08.2021;07:24:29;Normalcharge  ;03.12.2018;FEY;;LION;49;14500;7200;192;2;95;97;8400;;4083;4082;1;13018;29.44;29.44;31,5;BCS1388054;7;15
009594;04.08.2021;07:25:08;Stop          ;03.12.2018;FEY;;LION;49;14500;7200;192;2;95;97;8400;;4082;4082;1;12967;29.44;29.84;31,6;BCS1388054;7;15
009594;14.10.2021;12:40:04;Normalcharge  ;03.12.2018;FEY;;LION;49;14500;7200;192;2;91;93;8400;3000;4066;4065;1;13009;24.84;25.54;27,9;BCS1388054;3;17
009594;14.10.2021;12:41:33;Stop           ;03.12.2018;FEY;;LION;49;14500;7200;128;2;91;93;8400;3000;4133;4104;1;12599;24.94;28.64;28,4;BCS1388054;3;17
009594;28.12.2021;09:01:25;Normalcharge  ;03.12.2018;FEY;;LION;49;14500;7200;192;2;86;88;8400;3000;4013;4013;1;13007;22.94;23.64;25,3;BCS1388054;3;4
009594;28.12.2021;09:02:24;Stop           ;03.12.2018;FEY;;LION;49;14500;7200;128;2;86;88;8400;3000;4101;4060;1;12567;23.04;26.04;25,8;BCS1388054;3;4
009594;14.03.2022;10:33:51;Normalcharge  ;03.12.2018;FEY;;LION;49;14500;7200;192;3;38;38;8400;3000;3590;3590;1;13000;23.54;25.64;25,3;BCS1388054;5;7
009594;14.03.2022;10:38:12;Stop          ;03.12.2018;FEY;;LION;49;14500;7200;128;3;38;39;8400;3000;3684;3638;1;12697;23.74;31.64;28,1;BCS1388054;5;7