File: reader/Batterieverzeichnis/009515.txt
Serialnumber ; Date ; Time ; Action ; Date of Manufacture ; Manufacturer ; Battery Name ; Device-Chemistry ; Specification-Info ; Design-Capacity [mAh] ; Design-Voltage [mV] ; Battery Status ; Cycle Count ; SOC [%] ; Relativ SOC[%] ; Desired Voltage [mV]; Desired Current [mA]; Cell Voltage 1 [mV] ; Cell Voltage 2 [mV] ; Max_Error [%] ; Busvoltage[mV] ; Battery Temperature [°C] ; Charger Temperature [°C] ; Batterysystem ; Case ; PLace
009515;24.11.2020;08:56:08;Normalcharge  ;04.12.2018;FEY;;LION;49;14500;7200;192;4;19;19;8400;3000;3455;3454;1;13004;23.74;25.44;25,7;BCS1388054;1;18
009515;24.11.2020;08:59:34;Stop          ;04.12.2018;FEY;;LION;49;14500;7200;128;4;20;20;8400;3000;3563;3512;1;12903;24.14;31.04;26,4;BCS1388054;1;18
009515;24.11.2020;08:59:41;Normalcharge  ;04.12.2018;FEY;;LION;49;14500;7200;128;4;20;20;8400;3000;3478;3480;1;12999;24.14;30.94;26,4;BCS1388054;1;18
009515;24.11.2020;16:23:04;Stop          ;04.12.2018;FEY;;LION;49;14500;7200;224;4;100;100;8400;;4164;4164;1;12999;26.54;27.84;28,5;BCS1388054;1;18
009515;07.12.2020;04:14:36;Cycle         ;04.12.2018;FEY;;LION;49;14500;7200;192;4;97;98;8400;;4139;4139;1;12995;25.64;29.64;30,3;BCS1388054;6;2
009515;08.12.2020;16:20:13;Stop          ;04.12.2018;FEY;;LION;49;14500;7200;192;4;97;98;8400;;4137;4136;1;12995;27.74;31.24;31,9;BCS1388054;6;2
009515;12.01.2021;04:17:36;Charge to 90% ;04.12.2018;FEY;;LION;49;14500;7200;192;4;96;96;8400;;4121;4121;1;13006;23.04;23.54;23,6;BCS1388054;5;14
009515;12.01.2021;05:15:37;Stop          ;04.12.2018;FEY;;LION;49;14500;7200;192;4;90;90;8400;3000;4064;4063;1;12997;26.94;29.14;31,6;BCS1388054;5;14
009515;12.01.2021;05:21:53;Cycle         ;04.12.2018;FEY;;LION;49;14500;7200;192;4;90;90;8400;3000;4064;4064;1;12999;26.94;28.64;30,6;BCS1388054;5;14
009515;13.01.2021;08:31:10;Stop          ;04.12.2018;FEY;;LION;49;14500;7200;224;5;97;100;8400;;4155;4158;1;12998;27.14;28.54;31,1;BCS1388054;5;14
009515;21.02.2021;13:43:19;Normalcharge  ;04.12.2018;FEY;;LION;49;14500;7200;224;5;96;99;8400;;4131;4133;1;12992;23.84;25.74;27,5;BCS1388054;1;1
009515;22.02.2021;17:08:49;Stop          ;04.12.2018;FEY;;LION;49;14500;7200;224;5;96;99;8400;;4130;4131;1;12992;26.14;27.54;30,0;BCS1388054;1;1
009515;06.04.2021;08:39:16;Normalcharge  ;04.12.2018;FEY;;LION;49;14500;7200;192;5;95;98;8400;;4115;4116;1;12999;21.54;25.34;28,1;BCS1388054;6;1
009515;06.04.2021;08:40:03;Stop          ;04.12.2018;FEY;;LION;49;14500;7200;192;5;95;98;8400;;4115;4116;1;12980;21.54;25.64;28,5;BCS1388054;6;1
009515;08.04.2021;07:58:44;Normalcharge  ;04.12.2018;FEY;;LION;49;14500;7200;192;5;95;98;8400;;4115;4116;1;13004;25.14;21.04;26,4;BCS1388054;6;1
009515;08.04.2021;07:59:23;Stop          ;04.12.2018;FEY;;LION;49;14500;7200;192;5;95;98;8400;;4115;4116;1;13003;25.14;25.04;26,7;BCS1388054;6;1
009515;08.04.2021;10:36:16;Normalcharge  ;04.12.2018;FEY;;LION;49;14500;7200;192;5;95;97;8400;;4115;4116;1;13001;25.44;25.94;28,6;BCS1388054;6;1
009515;08.04.2021;10:37:11;Stop          ;04.12.2018;FEY;;LION;49;14500;7200;192;5;95;97;8400;;4115;4116;1;12982;25.44;26.44;29,2;BCS1388054;6;1
009515;18.04.2021;08:34:33;Normalcharge  ;04.12.2018;FEY;;LION;49;14500;7200;192;5;94;97;8400;;4112;4113;1;13000;26.04;26.84;28,2;BCS1388054;6;1
009515;18.04.2021;08:34:41;Stop          ;04.12.2018;FEY;;LION;49;14500;7200;192;5;94;97;8400;;4112;4114;1;13000;26.04;26.94;28,2;BCS1388054;6;1
009515;04.08.2021;07:24:35;Normalcharge  ;04.12.2018;FEY;;LION;49;14500;7200;192;5;93;96;8400;;4083;4085;1;13002;30.04;30.04;31,5;BCS1388054;6;1
009515;04.08.2021;07:25:17;Stop          ;04.12.2018;FEY;;LION;49;14500;7200;192;5;93;96;8400;;4083;4085;1;12987;30.04;30.64;31,6;BCS1388054;6;1
009515;22.08.2021;11:07:59;Normalcharge  ;04.12.2018;FEY;;LION;49;14500;7200;192;5;88;90;8400;3000;4041;4043;1;12996;23.24;29.64;32,1;BCS1388054;3;12
009515;22.08.2021;11:08:34;Stop           ;04.12.2018;FEY;;LION;49;14500;7200;128;5;88;90;8400;3000;4080;4064;1;12700;23.44;30.34;32,4;BCS1388054;3;12