File: reader/Batterieverzeichnis/009576.txt
Serialnumber ; Date ; Time ; Action ; Date of Manufacture ; Manufacturer ; Battery Name ; Device-Chemistry ; Specification-Info ; Design-Capacity [mAh] ; Design-Voltage [mV] ; Battery Status ; Cycle Count ; SOC [%] ; Relativ SOC[%] ; Desired Voltage [mV]; Desired Current [mA]; Cell Voltage 1 [mV] ; Cell Voltage 2 [mV] ; Max_Error [%] ; Busvoltage[mV] ; Battery Temperature [°C] ; Charger Temperature [°C] ; Batterysystem ; Case ; PLace
009576;07.12.2020;04:14:40;Cycle         ;04.12.2018;FEY;;LION;49;14500;7200;192;3;95;96;8400;;4112;4111;1;13026;25.64;28.34;30,3;BCS1388054;7;8
009576;08.12.2020;16:20:20;Stop          ;04.12.2018;FEY;;LION;49;14500;7200;192;3;95;96;8400;;4110;4110;1;13029;27.74;29.74;31,9;BCS1388054;7;8
009576;12.01.2021;04:17:36;Charge to 90% ;04.12.2018;FEY;;LION;49;14500;7200;192;3;95;96;8400;;4099;4099;1;13020;23.04;23.74;23,6;BCS1388054;5;18
009576;12.01.2021;05:15:37;Stop          ;04.12.2018;FEY;;LION;49;14500;7200;192;4;90;90;8400;3000;4044;4044;1;13014;27.24;28.54;31,6;BCS1388054;5;18
009576;12.01.2021;05:21:53;Cycle         ;04.12.2018;FEY;;LION;49;14500;7200;192;4;90;90;8400;3000;4044;4044;1;13014;27.04;28.24;30,6;BCS1388054;5;18
009576;13.01.2021;08:31:10;Stop          ;04.12.2018;FEY;;LION;49;14500;7200;224;5;97;100;8400;;4156;4158;1;13014;26.84;28.24;31,1;BCS1388054;5;18
009576;21.02.2021;13:43:19;Normalcharge  ;04.12.2018;FEY;;LION;49;14500;7200;192;5;71;74;8400;3000;3881;3883;1;13005;23.74;25.34;27,5;BCS1388054;1;7
009576;22.02.2021;17:08:49;Stop          ;04.12.2018;FEY;;LION;49;14500;7200;224;5;97;100;8400;;4147;4148;1;13006;26.34;27.34;30,0;BCS1388054;1;7
009576;06.04.2021;08:39:10;Normalcharge  ;04.12.2018;FEY;;LION;49;14500;7200;224;5;96;99;8400;;4127;4128;1;12999;21.94;25.94;28,1;BCS1388054;5;7
009576;06.04.2021;08:39:58;Stop          ;04.12.2018;FEY;;LION;49;14500;7200;224;5;96;99;8400;;4127;4128;1;13000;21.94;26.24;28,4;BCS1388054;5;7
009576;08.04.2021;07:58:30;Normalcharge  ;04.12.2018;FEY;;LION;49;14500;7200;224;5;96;99;8400;;4127;4128;1;12999;25.24;25.94;26,4;BCS1388054;5;7
009576;08.04.2021;07:59:28;Stop          ;04.12.2018;FEY;;LION;49;14500;7200;224;5;96;99;8400;;4127;4127;1;13000;25.24;26.44;26,7;BCS1388054;5;7
009576;08.04.2021;10:36:12;Normalcharge  ;04.12.2018;FEY;;LION;49;14500;7200;224;5;95;99;8400;;4126;4127;1;12999;25.44;26.84;28,6;BCS1388054;5;7
009576;08.04.2021;10:37:06;Stop          ;04.12.2018;FEY;;LION;49;14500;7200;224;5;95;99;8400;;4126;4127;1;12999;25.44;27.24;29,0;BCS1388054;5;7
009576;18.04.2021;08:34:16;Normalcharge  ;04.12.2018;FEY;;LION;49;14500;7200;224;5;95;99;8400;;4123;4124;1;12997;26.14;27.64;28,1;BCS1388054;5;7
009576;18.04.2021;08:34:27;Stop          ;04.12.2018;FEY;;LION;49;14500;7200;224;5;95;99;8400;;4123;4124;1;12999;26.14;27.74;28,2;BCS1388054;5;7
009576;04.08.2021;07:24:41;Normalcharge  ;04.12.2018;FEY;;LION;49;14500;7200;192;5;93;96;8400;;4091;4092;1;12995;30.24;31.44;31,5;BCS1388054;5;7
009576;04.08.2021;07:25:23;Stop          ;04.12.2018;FEY;;LION;49;14500;7200;192;5;93;96;8400;;4091;4092;1;12994;30.24;31.84;31,6;BCS1388054;5;7
009576;22.08.2021;11:37:13;Normalcharge  ;04.12.2018;FEY;;LION;49;14500;7200;192;5;93;96;8400;;4086;4087;1;13030;22.44;28.84;31,9;BCS1388054;7;16
009576;22.08.2021;11:37:48;Stop          ;04.12.2018;FEY;;LION;49;14500;7200;192;5;93;96;8400;;4086;4087;1;13000;22.64;28.94;31,9;BCS1388054;7;16
009576;14.10.2021;12:40:22;Normalcharge  ;04.12.2018;FEY;;LION;49;14500;7200;192;6;49;51;8400;3000;3652;3654;1;13024;23.64;26.04;28,1;BCS1388054;7;13
009576;14.10.2021;12:42:05;Stop          ;04.12.2018;FEY;;LION;49;14500;7200;128;6;49;51;8400;3000;3743;3698;1;12727;23.84;30.14;28,5;BCS1388054;7;13
009576;01.11.2021;09:51:48;Normalcharge  ;04.12.2018;FEY;;LION;49;14500;7200;192;6;49;51;8400;3000;3652;3653;1;13025;25.84;25.64;26,3;BCS1388054;7;13
009576;01.11.2021;09:53:51;Stop          ;04.12.2018;FEY;;LION;49;14500;7200;128;6;50;51;8400;3000;3741;3695;1;12672;25.94;30.24;27,4;BCS1388054;7;13
009576;01.11.2021;10:02:29;Normalcharge  ;04.12.2018;FEY;;LION;49;14500;7200;192;6;50;51;8400;3000;3655;3656;1;13021;26.04;27.74;29,5;BCS1388054;7;13
009576;01.11.2021;10:03:04;Stop          ;04.12.2018;FEY;;LION;49;14500;7200;128;6;50;51;8400;3000;3715;3681;1;12699;26.14;29.24;29,3;BCS1388054;7;13
009576;01.11.2021;10:27:23;Normalcharge  ;04.12.2018;FEY;;LION;49;14500;7200;192;6;50;51;8400;3000;3655;3657;1;13022;26.34;26.54;27,7;BCS1388054;7;13
009576;01.11.2021;10:29:22;Stop          ;04.12.2018;FEY;;LION;49;14500;7200;128;6;50;52;8400;3000;3745;3698;1;12673;26.44;31.04;28,6;BCS1388054;7;13