File: reader/Batterieverzeichnis/009547.txt
Serialnumber ; Date ; Time ; Action ; Date of Manufacture ; Manufacturer ; Battery Name ; Device-Chemistry ; Specification-Info ; Design-Capacity [mAh] ; Design-Voltage [mV] ; Battery Status ; Cycle Count ; SOC [%] ; Relativ SOC[%] ; Desired Voltage [mV]; Desired Current [mA]; Cell Voltage 1 [mV] ; Cell Voltage 2 [mV] ; Max_Error [%] ; Busvoltage[mV] ; Battery Temperature [°C] ; Charger Temperature [°C] ; Batterysystem ; Case ; PLace
009547;30.11.2020;09:42:55;Stop          ;03.12.2018;FEY;;LION;49;14500;7200;224;3;98;100;8400;;4154;4152;1;13029;27.54;28.14;31,7;BCS1388054;7;16
009547;07.02.2021;08:46:42;Normalcharge  ;03.12.2018;FEY;;LION;49;14500;7200;192;3;97;98;8400;;4122;4120;1;13000;23.64;25.04;29,2;BCS1388054;1;10
009547;07.02.2021;11:52:07;Stop          ;03.12.2018;FEY;;LION;49;14500;7200;192;3;97;98;8400;;4122;4120;1;13000;25.64;26.04;29,7;BCS1388054;1;10
009547;03.03.2021;08:17:21;Normalcharge  ;03.12.2018;FEY;;LION;49;14500;7200;192;3;93;94;8400;3000;4079;4078;1;13012;23.14;23.14;23,5;BCS1388054;3;5
009547;04.03.2021;07:53:39;Stop           ;03.12.2018;FEY;;LION;49;14500;7200;224;3;99;100;8400;;4147;4145;1;13006;26.34;27.14;31,5;BCS1388054;3;5
009547;04.04.2021;11:49:55;Normalcharge  ;03.12.2018;FEY;;LION;49;14500;7200;192;4;53;55;8400;3000;3691;3689;1;13022;24.94;25.94;27,5;BCS1388054;7;12
009547;04.04.2021;11:51:17;Stop          ;03.12.2018;FEY;;LION;49;14500;7200;128;4;54;55;8400;3000;3779;3730;1;12739;25.04;27.84;28,4;BCS1388054;7;12
009547;05.04.2021;09:37:37;Charge to 60% ;03.12.2018;FEY;;LION;49;14500;7200;192;4;54;55;8400;3000;3694;3692;1;13003;24.94;26.24;26,0;BCS1388054;1;14
009547;05.04.2021;10:01:53;Stop          ;03.12.2018;FEY;;LION;49;14500;7200;128;4;58;60;8400;3000;3767;3766;1;12999;27.04;34.04;31,2;BCS1388054;1;14
009547;22.08.2021;11:07:56;Normalcharge  ;03.12.2018;FEY;;LION;49;14500;7200;192;4;45;45;8400;3000;3623;3622;1;12993;22.44;29.84;32,0;BCS1388054;2;14
009547;22.08.2021;11:08:29;Stop          ;03.12.2018;FEY;;LION;49;14500;7200;128;4;45;45;8400;3000;3693;3652;1;12574;22.54;31.14;32,4;BCS1388054;2;14