File: reader/Batterieverzeichnis/009534.txt
Serialnumber ; Date ; Time ; Action ; Date of Manufacture ; Manufacturer ; Battery Name ; Device-Chemistry ; Specification-Info ; Design-Capacity [mAh] ; Design-Voltage [mV] ; Battery Status ; Cycle Count ; SOC [%] ; Relativ SOC[%] ; Desired Voltage [mV]; Desired Current [mA]; Cell Voltage 1 [mV] ; Cell Voltage 2 [mV] ; Max_Error [%] ; Busvoltage[mV] ; Battery Temperature [°C] ; Charger Temperature [°C] ; Batterysystem ; Case ; PLace
009534;07.12.2020;04:14:28;Cycle         ;03.12.2018;FEY;;LION;49;14500;7200;192;3;99;98;8400;;4143;4144;1;13004;25.44;27.34;30,3;BCS1388054;4;8
009534;08.12.2020;16:19:56;Stop          ;03.12.2018;FEY;;LION;49;14500;7200;192;3;99;98;8400;;4141;4142;1;13005;27.64;28.74;31,9;BCS1388054;4;8
009534;12.01.2021;04:17:36;Charge to 90% ;03.12.2018;FEY;;LION;49;14500;7200;192;3;98;97;8400;;4127;4128;1;13002;22.84;24.34;23,6;BCS1388054;5;7
009534;12.01.2021;05:15:37;Stop          ;03.12.2018;FEY;;LION;49;14500;7200;192;3;91;90;8400;3000;4062;4063;1;12997;27.14;29.94;31,6;BCS1388054;5;7
009534;12.01.2021;05:21:53;Cycle         ;03.12.2018;FEY;;LION;49;14500;7200;192;3;91;90;8400;3000;4062;4063;1;12997;27.14;29.34;30,6;BCS1388054;5;7
009534;13.01.2021;08:31:10;Stop          ;03.12.2018;FEY;;LION;49;14500;7200;224;4;98;100;8400;;4155;4155;1;12996;27.04;29.34;31,1;BCS1388054;5;7
009534;21.02.2021;13:43:32;Normalcharge  ;03.12.2018;FEY;;LION;49;14500;7200;192;5;58;59;8400;3000;3724;3723;1;13014;22.94;24.14;27,5;BCS1388054;2;6
009534;21.02.2021;19:27:00;Stop          ;03.12.2018;FEY;;LION;49;14500;7200;224;5;99;100;8400;;4154;4154;1;13014;26.34;26.64;31,1;BCS1388054;2;6
009534;04.04.2021;11:50:22;Normalcharge  ;03.12.2018;FEY;;LION;49;14500;7200;224;5;97;99;8400;;4124;4125;1;13005;24.94;26.64;27,9;BCS1388054;4;7
009534;04.04.2021;11:51:36;Stop          ;03.12.2018;FEY;;LION;49;14500;7200;224;5;97;99;8400;;4124;4125;1;12738;24.94;27.14;28,6;BCS1388054;4;7
009534;22.08.2021;11:37:25;Normalcharge  ;03.12.2018;FEY;;LION;49;14500;7200;192;5;92;94;8400;3000;4075;4075;1;13003;21.34;27.94;31,9;BCS1388054;4;13
009534;22.08.2021;11:38:13;Stop          ;03.12.2018;FEY;;LION;49;14500;7200;128;5;92;94;8400;3000;4125;4104;1;12632;21.44;29.84;32,1;BCS1388054;4;13
009534;01.11.2021;10:18:16;Normalcharge  ;03.12.2018;FEY;;LION;49;14500;7200;192;5;84;85;8400;3000;3974;3975;1;12989;23.84;27.04;28,2;BCS1388054;3;8
009534;01.11.2021;10:18:56;Stop           ;03.12.2018;FEY;;LION;49;14500;7200;128;5;84;85;8400;3000;4047;4008;1;12617;23.84;28.44;28,2;BCS1388054;3;8
009534;01.11.2021;10:27:50;Normalcharge  ;03.12.2018;FEY;;LION;49;14500;7200;192;5;84;85;8400;3000;3975;3975;1;12992;24.34;27.24;27,8;BCS1388054;3;8
009534;01.11.2021;10:29:05;Stop           ;03.12.2018;FEY;;LION;49;14500;7200;128;5;84;85;8400;3000;4071;4023;1;12561;24.34;30.04;28,5;BCS1388054;3;8