File: reader/Batterieverzeichnis/009570.txt
Serialnumber ; Date ; Time ; Action ; Date of Manufacture ; Manufacturer ; Battery Name ; Device-Chemistry ; Specification-Info ; Design-Capacity [mAh] ; Design-Voltage [mV] ; Battery Status ; Cycle Count ; SOC [%] ; Relativ SOC[%] ; Desired Voltage [mV]; Desired Current [mA]; Cell Voltage 1 [mV] ; Cell Voltage 2 [mV] ; Max_Error [%] ; Busvoltage[mV] ; Battery Temperature [°C] ; Charger Temperature [°C] ; Batterysystem ; Case ; PLace
009570;07.12.2020;04:14:32;Cycle         ;04.12.2018;FEY;;LION;49;14500;7200;16576;3;98;98;;;4148;4147;1;12996;25.74;28.54;30,3;BCS1388054;5;7
009570;08.12.2020;16:20:01;Stop          ;04.12.2018;FEY;;LION;49;14500;7200;16576;3;98;98;;;4145;4144;1;12994;27.94;30.24;31,7;BCS1388054;5;7
009570;12.01.2021;04:17:36;Charge to 90% ;04.12.2018;FEY;;LION;49;14500;7200;16576;3;97;97;;;4131;4131;1;13018;23.04;23.24;23,6;BCS1388054;5;17
009570;12.01.2021;05:15:37;Stop          ;04.12.2018;FEY;;LION;49;14500;7200;192;3;90;90;8400;3000;4063;4062;1;13012;27.04;28.34;31,6;BCS1388054;5;17
009570;12.01.2021;05:21:53;Cycle         ;04.12.2018;FEY;;LION;49;14500;7200;192;3;90;90;8400;3000;4064;4063;1;13013;27.04;27.94;30,6;BCS1388054;5;17
009570;13.01.2021;08:31:10;Stop          ;04.12.2018;FEY;;LION;49;14500;7200;224;4;97;100;8400;;4155;4154;1;13013;26.94;27.84;31,1;BCS1388054;5;17
009570;21.02.2021;13:43:32;Normalcharge  ;04.12.2018;FEY;;LION;49;14500;7200;224;4;96;99;8400;;4132;4131;1;13003;23.24;24.84;27,5;BCS1388054;2;14
009570;21.02.2021;19:27:00;Stop          ;04.12.2018;FEY;;LION;49;14500;7200;224;4;96;99;8400;;4132;4131;1;13002;27.04;28.24;31,1;BCS1388054;2;14
009570;06.04.2021;08:39:16;Normalcharge  ;04.12.2018;FEY;;LION;49;14500;7200;192;4;95;98;8400;;4116;4116;1;12997;21.34;25.14;28,1;BCS1388054;6;7
009570;06.04.2021;08:40:03;Stop          ;04.12.2018;FEY;;LION;49;14500;7200;192;4;95;98;8400;;4116;4116;1;12976;21.34;25.34;28,5;BCS1388054;6;7
009570;08.04.2021;07:58:44;Normalcharge  ;04.12.2018;FEY;;LION;49;14500;7200;192;4;95;98;8400;;4116;4116;1;13001;25.14;23.64;26,4;BCS1388054;6;7
009570;08.04.2021;07:59:23;Stop          ;04.12.2018;FEY;;LION;49;14500;7200;192;4;95;98;8400;;4116;4116;1;13001;25.14;25.24;26,7;BCS1388054;6;7
009570;08.04.2021;10:36:16;Normalcharge  ;04.12.2018;FEY;;LION;49;14500;7200;192;4;95;98;8400;;4116;4116;1;12999;25.44;25.84;28,6;BCS1388054;6;7
009570;08.04.2021;10:37:11;Stop          ;04.12.2018;FEY;;LION;49;14500;7200;192;4;95;98;8400;;4116;4116;1;12979;25.44;26.24;29,2;BCS1388054;6;7
009570;18.04.2021;08:34:33;Normalcharge  ;04.12.2018;FEY;;LION;49;14500;7200;192;4;94;97;8400;;4113;4112;1;12998;26.04;26.64;28,2;BCS1388054;6;7
009570;18.04.2021;08:34:41;Stop          ;04.12.2018;FEY;;LION;49;14500;7200;192;4;94;97;8400;;4113;4112;1;12996;26.04;26.74;28,2;BCS1388054;6;7
009570;04.08.2021;07:24:35;Normalcharge  ;04.12.2018;FEY;;LION;49;14500;7200;192;4;93;96;8400;;4085;4085;1;12994;30.14;30.14;31,5;BCS1388054;6;7
009570;04.08.2021;07:25:17;Stop          ;04.12.2018;FEY;;LION;49;14500;7200;192;4;93;96;8400;;4086;4085;1;12977;30.14;30.54;31,6;BCS1388054;6;7
009570;22.08.2021;11:08:00;Normalcharge  ;04.12.2018;FEY;;LION;49;14500;7200;192;4;91;94;8400;3000;4081;4080;1;13008;22.34;29.44;32,1;BCS1388054;3;15
009570;22.08.2021;11:08:34;Stop           ;04.12.2018;FEY;;LION;49;14500;7200;128;4;91;94;8400;3000;4154;4121;1;12706;22.44;30.64;32,4;BCS1388054;3;15
009570;14.10.2021;12:39:57;Normalcharge  ;04.12.2018;FEY;;LION;49;14500;7200;192;4;69;71;8400;3000;3861;3860;1;12986;25.04;26.74;27,9;BCS1388054;2;7
009570;14.10.2021;12:41:24;Stop          ;04.12.2018;FEY;;LION;49;14500;7200;128;4;69;72;8400;3000;3954;3906;1;12560;25.14;30.24;28,2;BCS1388054;2;7
009570;07.02.2022;08:51:51;Normalcharge  ;04.12.2018;FEY;;LION;49;14500;7200;192;4;69;72;8400;3000;3836;3835;1;13004;22.34;22.34;25,6;BCS1388054;1;10
009570;07.02.2022;13:16:30;Stop          ;04.12.2018;FEY;;LION;49;14500;7200;224;4;97;100;8400;;4152;4149;1;13000;25.44;26.04;31,2;BCS1388054;1;10
009570;14.03.2022;12:14:26;Normalcharge  ;04.12.2018;FEY;;LION;49;14500;7200;224;4;96;99;8400;;4129;4127;1;13006;23.94;25.04;27,5;BCS1388054;5;3
009570;14.03.2022;12:18:30;Stop          ;04.12.2018;FEY;;LION;49;14500;7200;224;4;96;99;8400;;4129;4127;1;13003;24.04;26.74;29,5;BCS1388054;5;3