File: reader/Batterieverzeichnis/009532.txt
Serialnumber ; Date ; Time ; Action ; Date of Manufacture ; Manufacturer ; Battery Name ; Device-Chemistry ; Specification-Info ; Design-Capacity [mAh] ; Design-Voltage [mV] ; Battery Status ; Cycle Count ; SOC [%] ; Relativ SOC[%] ; Desired Voltage [mV]; Desired Current [mA]; Cell Voltage 1 [mV] ; Cell Voltage 2 [mV] ; Max_Error [%] ; Busvoltage[mV] ; Battery Temperature [°C] ; Charger Temperature [°C] ; Batterysystem ; Case ; PLace
009532;07.12.2020;04:14:36;Cycle         ;04.12.2018;FEY;;LION;49;14500;7200;192;3;96;97;8400;;4131;4130;1;12980;25.44;26.54;30,3;BCS1388054;6;16
009532;08.12.2020;16:20:13;Stop          ;04.12.2018;FEY;;LION;49;14500;7200;192;3;96;97;8400;;4129;4129;1;12980;27.54;28.14;31,9;BCS1388054;6;16
009532;12.01.2021;04:17:36;Charge to 90% ;04.12.2018;FEY;;LION;49;14500;7200;192;3;94;96;8400;;4117;4116;1;13013;22.94;23.94;23,6;BCS1388054;5;16
009532;12.01.2021;05:15:37;Stop          ;04.12.2018;FEY;;LION;49;14500;7200;192;3;89;90;8400;3000;4063;4062;1;13008;26.64;28.84;31,6;BCS1388054;5;16
009532;12.01.2021;05:21:53;Cycle         ;04.12.2018;FEY;;LION;49;14500;7200;192;3;89;90;8400;3000;4063;4062;1;13009;26.64;28.34;30,6;BCS1388054;5;16
009532;13.01.2021;08:31:10;Stop          ;04.12.2018;FEY;;LION;49;14500;7200;224;4;97;100;8400;;4155;4155;1;13008;26.94;28.34;31,1;BCS1388054;5;16
009532;21.02.2021;13:43:32;Normalcharge  ;04.12.2018;FEY;;LION;49;14500;7200;192;5;46;47;8400;3000;3637;3637;1;13003;23.24;25.24;27,5;BCS1388054;2;1
009532;21.02.2021;19:26:59;Stop          ;04.12.2018;FEY;;LION;49;14500;7200;224;5;97;100;8400;;4155;4154;1;13004;26.84;28.44;31,1;BCS1388054;2;1
009532;06.04.2021;08:39:10;Normalcharge  ;04.12.2018;FEY;;LION;49;14500;7200;224;5;96;99;8400;;4127;4126;1;12995;21.44;24.84;28,1;BCS1388054;5;13
009532;06.04.2021;08:39:58;Stop          ;04.12.2018;FEY;;LION;49;14500;7200;224;5;96;99;8400;;4127;4126;1;12994;21.44;25.04;28,4;BCS1388054;5;13
009532;08.04.2021;07:58:30;Normalcharge  ;04.12.2018;FEY;;LION;49;14500;7200;224;5;96;99;8400;;4127;4126;1;12996;25.04;24.94;26,4;BCS1388054;5;13
009532;08.04.2021;07:59:28;Stop          ;04.12.2018;FEY;;LION;49;14500;7200;224;5;96;99;8400;;4127;4126;1;12996;25.04;25.34;26,7;BCS1388054;5;13
009532;08.04.2021;10:36:12;Normalcharge  ;04.12.2018;FEY;;LION;49;14500;7200;224;5;96;99;8400;;4127;4126;1;12995;25.34;25.74;28,6;BCS1388054;5;13
009532;08.04.2021;10:37:06;Stop          ;04.12.2018;FEY;;LION;49;14500;7200;224;5;96;99;8400;;4127;4126;1;12995;25.34;26.04;29,0;BCS1388054;5;13
009532;18.04.2021;08:34:16;Normalcharge  ;04.12.2018;FEY;;LION;49;14500;7200;224;5;96;99;8400;;4123;4122;1;12994;25.94;26.54;28,1;BCS1388054;5;13
009532;18.04.2021;08:34:27;Stop          ;04.12.2018;FEY;;LION;49;14500;7200;224;5;96;99;8400;;4123;4122;1;12994;25.94;26.54;28,2;BCS1388054;5;13
009532;04.08.2021;07:24:41;Normalcharge  ;04.12.2018;FEY;;LION;49;14500;7200;192;5;94;96;8400;;4090;4089;1;12991;30.04;30.34;31,5;BCS1388054;5;13
009532;04.08.2021;07:25:23;Stop          ;04.12.2018;FEY;;LION;49;14500;7200;192;5;94;96;8400;;4090;4089;1;12991;30.14;30.64;31,6;BCS1388054;5;13
009532;22.08.2021;11:37:13;Normalcharge  ;04.12.2018;FEY;;LION;49;14500;7200;192;5;92;95;8400;3000;4085;4084;1;13021;22.54;29.14;31,9;BCS1388054;7;11
009532;22.08.2021;11:37:48;Stop          ;04.12.2018;FEY;;LION;49;14500;7200;192;5;92;95;8400;3000;4085;4084;1;12992;22.64;30.14;31,9;BCS1388054;7;11