File: reader/Batterieverzeichnis/009581.txt
Serialnumber ; Date ; Time ; Action ; Date of Manufacture ; Manufacturer ; Battery Name ; Device-Chemistry ; Specification-Info ; Design-Capacity [mAh] ; Design-Voltage [mV] ; Battery Status ; Cycle Count ; SOC [%] ; Relativ SOC[%] ; Desired Voltage [mV]; Desired Current [mA]; Cell Voltage 1 [mV] ; Cell Voltage 2 [mV] ; Max_Error [%] ; Busvoltage[mV] ; Battery Temperature [°C] ; Charger Temperature [°C] ; Batterysystem ; Case ; PLace
009581;07.02.2021;08:46:49;Normalcharge  ;04.12.2018;FEY;;LION;49;14500;7200;192;2;91;96;8400;;4107;4108;1;12998;23.74;24.84;29,2;BCS1388054;2;11
009581;07.02.2021;11:52:12;Stop          ;04.12.2018;FEY;;LION;49;14500;7200;192;2;91;96;8400;;4107;4108;1;12999;25.84;26.04;29,7;BCS1388054;2;11
009581;03.03.2021;08:17:17;Normalcharge  ;04.12.2018;FEY;;LION;49;14500;7200;192;2;91;96;8400;;4100;4101;1;13012;23.24;23.24;23,5;BCS1388054;2;1
009581;04.03.2021;07:53:45;Stop          ;04.12.2018;FEY;;LION;49;14500;7200;192;2;91;96;8400;;4099;4100;1;13003;26.44;28.14;31,6;BCS1388054;2;1
009581;04.04.2021;11:50:28;Normalcharge  ;04.12.2018;FEY;;LION;49;14500;7200;192;3;46;49;8400;3000;3651;3652;1;12996;25.14;26.64;27,9;BCS1388054;3;8
009581;04.04.2021;11:51:43;Stop           ;04.12.2018;FEY;;LION;49;14500;7200;128;3;46;49;8400;3000;3737;3691;1;12787;25.24;29.24;28,6;BCS1388054;3;8
009581;05.04.2021;09:38:17;Charge to 60% ;04.12.2018;FEY;;LION;49;14500;7200;192;3;46;49;8400;3000;3652;3653;1;13001;25.14;25.74;26,4;BCS1388054;5;14
009581;05.04.2021;10:34:50;Charge to 60% ;04.12.2018;FEY;;LION;49;14500;7200;192;3;57;60;8400;3000;3762;3765;1;12914;28.84;30.64;32,4;BCS1388054;5;14
009581;05.04.2021;13:16:09;Stop          ;04.12.2018;FEY;;LION;49;14500;7200;192;3;57;60;8400;3000;3755;3758;1;12997;27.94;29.54;32,2;BCS1388054;5;14
009581;22.08.2021;11:37:30;Normalcharge  ;04.12.2018;FEY;;LION;49;14500;7200;192;3;52;55;8400;3000;3701;3702;1;12990;21.54;28.74;31,9;BCS1388054;3;8
009581;22.08.2021;11:38:19;Stop           ;04.12.2018;FEY;;LION;49;14500;7200;128;3;52;55;8400;3000;3784;3740;1;12558;21.64;30.64;32,1;BCS1388054;3;8
009581;25.08.2021;08:15:15;Ladung auf 60% ;04.12.2018;FEY;;LION;49;14500;7200;192;3;52;55;8400;3000;3703;3704;1;12988;30.54;32.44;33,4;BCS1388054;3;8
009581;25.08.2021;08:40:44;Stop           ;04.12.2018;FEY;;LION;49;14500;7200;192;3;57;60;8400;3000;3778;3780;1;12987;32.54;35.94;36,1;BCS1388054;3;8
009581;01.11.2021;09:52:05;Normalcharge  ;04.12.2018;FEY;;LION;49;14500;7200;192;3;55;58;8400;3000;3729;3730;1;13017;25.44;25.04;26,3;BCS1388054;4;4
009581;01.11.2021;09:53:34;Stop          ;04.12.2018;FEY;;LION;49;14500;7200;128;3;55;58;8400;3000;3821;3774;1;12628;25.44;28.84;27,1;BCS1388054;4;4
009581;01.11.2021;10:02:14;Normalcharge  ;04.12.2018;FEY;;LION;49;14500;7200;192;3;55;58;8400;3000;3733;3734;1;13013;25.64;27.34;29,5;BCS1388054;4;4
009581;01.11.2021;10:03:16;Stop          ;04.12.2018;FEY;;LION;49;14500;7200;128;3;55;58;8400;3000;3822;3776;1;12606;25.64;29.64;29,3;BCS1388054;4;4
009581;01.11.2021;10:18:21;Normalcharge  ;04.12.2018;FEY;;LION;49;14500;7200;192;3;55;58;8400;3000;3735;3737;1;13012;25.84;26.74;28,4;BCS1388054;4;4
009581;01.11.2021;10:19:03;Stop          ;04.12.2018;FEY;;LION;49;14500;7200;128;3;55;58;8400;3000;3817;3773;1;12592;25.84;28.54;28,2;BCS1388054;4;4
009581;01.11.2021;10:28:22;Normalcharge  ;04.12.2018;FEY;;LION;49;14500;7200;192;3;55;58;8400;3000;3736;3738;1;13012;25.94;26.94;27,9;BCS1388054;4;4
009581;01.11.2021;10:29:09;Stop          ;04.12.2018;FEY;;LION;49;14500;7200;128;3;55;58;8400;3000;3824;3777;1;12588;25.94;29.04;28,5;BCS1388054;4;4
009581;01.11.2021;10:32:29;Charge to 60% ;04.12.2018;FEY;;LION;49;14500;7200;192;3;55;58;8400;3000;3738;3740;1;13012;26.04;27.64;29,7;BCS1388054;4;4
009581;01.11.2021;15:19:33;Stop          ;04.12.2018;FEY;;LION;49;14500;7200;192;3;57;60;8400;3000;3761;3763;1;13011;28.54;29.34;32,7;BCS1388054;4;4
009581;07.02.2022;08:51:04;Normalcharge  ;04.12.2018;FEY;;LION;49;14500;7200;192;3;54;57;8400;3000;3719;3720;1;13012;22.34;22.74;25,1;BCS1388054;3;15
009581;07.02.2022;14:32:56;Stop           ;04.12.2018;FEY;;LION;49;14500;7200;224;3;96;100;8400;;4156;4155;1;13009;25.44;26.64;30,8;BCS1388054;3;15
009581;13.03.2022;12:10:09;Normalcharge  ;04.12.2018;FEY;;LION;49;14500;7200;192;3;65;70;8400;3000;3847;3848;1;13023;24.34;24.14;25,6;BCS1388054;3;3
009581;13.03.2022;12:10:50;Stop           ;04.12.2018;FEY;;LION;49;14500;7200;128;3;65;70;8400;3000;3876;3862;1;12769;24.34;25.74;25,7;BCS1388054;3;3
009581;14.03.2022;10:33:26;Normalcharge  ;04.12.2018;FEY;;LION;49;14500;7200;192;3;65;70;8400;3000;3847;3847;1;13028;24.24;24.44;25,0;BCS1388054;7;2
009581;14.03.2022;10:37:46;Normalcharge  ;04.12.2018;FEY;;LION;49;14500;7200;128;3;66;71;8400;3000;3951;3902;1;12758;24.44;30.84;27,9;BCS1388054;7;2
009581;14.03.2022;10:37:57;Stop          ;04.12.2018;FEY;;LION;49;14500;7200;128;3;66;71;8400;3000;3951;3903;1;12758;24.44;30.94;27,9;BCS1388054;7;2