File: reader/Batterieverzeichnis/009675.txt
Serialnumber ; Date ; Time ; Action ; Date of Manufacture ; Manufacturer ; Battery Name ; Device-Chemistry ; Specification-Info ; Design-Capacity [mAh] ; Design-Voltage [mV] ; Battery Status ; Cycle Count ; SOC [%] ; Relativ SOC[%] ; Desired Voltage [mV]; Desired Current [mA]; Cell Voltage 1 [mV] ; Cell Voltage 2 [mV] ; Max_Error [%] ; Busvoltage[mV] ; Battery Temperature [°C] ; Charger Temperature [°C] ; Batterysystem ; Case ; PLace
009675;12.01.2021;04:17:28;Ladung auf 90% ;03.12.2018;FEY;;LION;49;14500;7200;192;2;97;97;8400;;4129;4128;1;13009;22.44;23.04;23,6;BCS1388054;3;4
009675;12.01.2021;04:57:30;Stop           ;03.12.2018;FEY;;LION;49;14500;7200;192;2;91;90;8400;3000;4062;4062;1;13005;26.34;28.94;31,5;BCS1388054;3;4
009675;12.01.2021;05:21:45;Cycle          ;03.12.2018;FEY;;LION;49;14500;7200;192;2;91;90;8400;3000;4066;4066;1;13005;26.54;27.44;30,4;BCS1388054;3;4
009675;13.01.2021;08:23:25;Stop           ;03.12.2018;FEY;;LION;49;14500;7200;224;4;97;100;8400;;4156;4156;1;13004;26.44;27.44;31,4;BCS1388054;3;4
009675;03.03.2021;08:17:46;Normalcharge  ;03.12.2018;FEY;;LION;49;14500;7200;192;5;26;26;8400;3000;3520;3520;1;13028;22.54;23.04;23,6;BCS1388054;7;11
009675;03.03.2021;10:54:05;Stop          ;03.12.2018;FEY;;LION;49;14500;7200;128;5;58;59;8400;3000;3856;3808;1;12691;29.54;31.84;31,4;BCS1388054;7;11
009675;03.03.2021;10:55:49;Normalcharge  ;03.12.2018;FEY;;LION;49;14500;7200;192;5;58;60;8400;3000;3771;3772;1;13020;29.44;29.84;30,6;BCS1388054;7;11
009675;03.03.2021;17:03:24;Stop          ;03.12.2018;FEY;;LION;49;14500;7200;224;5;98;100;8400;;4153;4151;1;13023;25.54;26.44;31,4;BCS1388054;7;11
009675;04.04.2021;11:50:28;Normalcharge  ;03.12.2018;FEY;;LION;49;14500;7200;2768;6;;;8400;3000;3088;3088;1;13011;24.34;25.44;27,9;BCS1388054;3;17
009675;04.04.2021;11:51:43;Stop           ;03.12.2018;FEY;;LION;49;14500;7200;2768;6;;;8400;3000;3088;3088;1;12800;24.34;27.24;28,6;BCS1388054;3;17
009675;05.04.2021;09:38:25;Charge to 60% ;03.12.2018;FEY;;LION;49;14500;7200;2768;6;;;8400;3000;3094;3094;1;13003;24.44;25.54;26,6;BCS1388054;6;1
009675;05.04.2021;13:29:53;Stop          ;03.12.2018;FEY;;LION;49;14500;7200;128;6;47;49;8400;3000;3769;3721;1;12924;28.94;33.04;31,9;BCS1388054;6;1
009675;06.04.2021;07:40:17;Charge to 60% ;03.12.2018;FEY;;LION;49;14500;7200;192;6;49;51;8400;3000;3669;3669;1;13009;24.24;24.54;25,1;BCS1388054;6;1
009675;06.04.2021;08:24:55;Stop          ;03.12.2018;FEY;;LION;49;14500;7200;192;6;57;60;8400;3000;3774;3774;1;13005;26.34;28.44;27,8;BCS1388054;6;1
009675;08.04.2021;10:36:07;Normalcharge  ;03.12.2018;FEY;;LION;49;14500;7200;192;6;58;61;8400;3000;3752;3753;1;13010;24.54;25.74;28,5;BCS1388054;4;13
009675;08.04.2021;10:37:03;Stop          ;03.12.2018;FEY;;LION;49;14500;7200;128;6;58;61;8400;3000;3840;3793;1;12973;24.54;28.34;29,0;BCS1388054;4;13
009675;18.04.2021;08:34:04;Normalcharge  ;03.12.2018;FEY;;LION;49;14500;7200;192;6;57;59;8400;3000;3741;3741;1;13009;25.54;26.54;27,9;BCS1388054;4;13
009675;18.04.2021;08:34:10;Stop          ;03.12.2018;FEY;;LION;49;14500;7200;192;6;57;59;8400;3000;3741;3741;1;13009;25.54;26.54;28,1;BCS1388054;4;13
009675;04.08.2021;07:24:46;Normalcharge  ;03.12.2018;FEY;;LION;49;14500;7200;192;6;54;56;8400;3000;3705;3705;1;13006;29.64;30.54;31,5;BCS1388054;4;13
009675;04.08.2021;07:25:30;Stop          ;03.12.2018;FEY;;LION;49;14500;7200;128;6;54;56;8400;3000;3776;3735;1;12969;29.64;32.44;31,7;BCS1388054;4;13
009675;25.08.2021;08:15:24;Charge to 60% ;03.12.2018;FEY;;LION;49;14500;7200;192;6;54;56;8400;3000;3701;3701;1;12985;29.64;32.74;33,5;BCS1388054;1;2
009675;25.08.2021;09:25:51;Stop          ;03.12.2018;FEY;;LION;49;14500;7200;192;6;57;60;8400;3000;3751;3751;1;12984;31.54;34.84;36,6;BCS1388054;1;2
009675;01.11.2021;09:51:48;Normalcharge  ;03.12.2018;FEY;;LION;49;14500;7200;192;6;55;57;8400;3000;3717;3717;1;13020;25.34;26.54;26,3;BCS1388054;7;12
009675;01.11.2021;09:53:51;Stop          ;03.12.2018;FEY;;LION;49;14500;7200;128;6;55;58;8400;3000;3813;3768;1;12652;25.44;28.94;27,4;BCS1388054;7;12
009675;01.11.2021;10:02:29;Normalcharge  ;03.12.2018;FEY;;LION;49;14500;7200;192;6;55;58;8400;3000;3723;3723;1;13015;25.54;27.64;29,5;BCS1388054;7;12
009675;01.11.2021;10:03:04;Stop          ;03.12.2018;FEY;;LION;49;14500;7200;128;6;55;58;8400;3000;3783;3751;1;12685;25.64;28.54;29,3;BCS1388054;7;12
009675;01.11.2021;10:27:23;Normalcharge  ;03.12.2018;FEY;;LION;49;14500;7200;192;6;55;58;8400;3000;3724;3724;1;13016;25.74;27.24;27,7;BCS1388054;7;12
009675;01.11.2021;10:29:22;Stop          ;03.12.2018;FEY;;LION;49;14500;7200;128;6;56;58;8400;3000;3819;3773;1;12652;25.84;29.54;28,6;BCS1388054;7;12