File: reader/Batterieverzeichnis/009671.txt
Serialnumber ; Date ; Time ; Action ; Date of Manufacture ; Manufacturer ; Battery Name ; Device-Chemistry ; Specification-Info ; Design-Capacity [mAh] ; Design-Voltage [mV] ; Battery Status ; Cycle Count ; SOC [%] ; Relativ SOC[%] ; Desired Voltage [mV]; Desired Current [mA]; Cell Voltage 1 [mV] ; Cell Voltage 2 [mV] ; Max_Error [%] ; Busvoltage[mV] ; Battery Temperature [°C] ; Charger Temperature [°C] ; Batterysystem ; Case ; PLace
009671;07.12.2020;04:14:40;Cycle         ;04.12.2018;FEY;;LION;49;14500;7200;192;3;96;97;8400;;4135;4135;1;13026;25.74;27.24;30,3;BCS1388054;7;4
009671;08.12.2020;16:20:20;Stop          ;04.12.2018;FEY;;LION;49;14500;7200;192;3;96;97;8400;;4133;4133;1;13027;27.64;28.44;31,9;BCS1388054;7;4
009671;12.01.2021;04:17:33;Charge to 90% ;04.12.2018;FEY;;LION;49;14500;7200;192;3;95;96;8400;;4119;4119;1;13010;23.24;23.24;23,6;BCS1388054;4;8
009671;12.01.2021;04:57:16;Stop          ;04.12.2018;FEY;;LION;49;14500;7200;192;4;89;90;8400;3000;4060;4060;1;13004;26.74;28.94;31,6;BCS1388054;4;8
009671;12.01.2021;05:21:49;Cycle         ;04.12.2018;FEY;;LION;49;14500;7200;192;4;89;90;8400;3000;4064;4063;1;13006;27.14;27.64;30,4;BCS1388054;4;8
009671;13.01.2021;08:19:19;Stop          ;04.12.2018;FEY;;LION;49;14500;7200;224;5;97;100;8400;;4156;4157;1;13006;27.54;27.64;30,7;BCS1388054;4;8
009671;21.02.2021;13:44:56;Normalcharge  ;04.12.2018;FEY;;LION;49;14500;7200;192;5;62;64;8400;3000;3809;3807;1;13017;22.94;23.94;27,7;BCS1388054;5;15
009671;21.02.2021;19:31:36;Stop          ;04.12.2018;FEY;;LION;49;14500;7200;224;5;97;100;8400;;4154;4156;1;13012;27.34;29.44;30,6;BCS1388054;5;15
009671;06.04.2021;08:39:21;Normalcharge  ;04.12.2018;FEY;;LION;49;14500;7200;192;5;90;93;8400;3000;4069;4069;1;13038;21.64;24.24;28,1;BCS1388054;7;14
009671;06.04.2021;08:40:08;Stop          ;04.12.2018;FEY;;LION;49;14500;7200;128;5;90;93;8400;3000;4128;4102;1;12944;21.74;26.14;28,5;BCS1388054;7;14
009671;08.04.2021;07:59:03;Normalcharge  ;04.12.2018;FEY;;LION;49;14500;7200;192;5;90;93;8400;3000;4069;4069;1;13039;25.24;24.64;26,4;BCS1388054;7;14
009671;08.04.2021;07:59:16;Stop          ;04.12.2018;FEY;;LION;49;14500;7200;192;5;90;93;8400;3000;4068;4069;1;13036;25.24;24.84;26,6;BCS1388054;7;14
009671;08.04.2021;10:36:43;Normalcharge  ;04.12.2018;FEY;;LION;49;14500;7200;192;5;90;93;8400;3000;4068;4069;1;13036;25.44;25.64;28,9;BCS1388054;7;14
009671;08.04.2021;10:37:15;Stop          ;04.12.2018;FEY;;LION;49;14500;7200;128;5;90;93;8400;3000;4101;4086;1;12958;25.54;26.74;29,2;BCS1388054;7;14
009671;18.04.2021;08:34:46;Normalcharge  ;04.12.2018;FEY;;LION;49;14500;7200;192;5;90;93;8400;3000;4066;4066;1;13036;26.14;26.34;28,2;BCS1388054;7;14
009671;18.04.2021;08:34:54;Stop          ;04.12.2018;FEY;;LION;49;14500;7200;192;5;90;93;8400;3000;4066;4066;1;13033;26.14;26.44;28,4;BCS1388054;7;14
009671;04.08.2021;07:24:29;Normalcharge  ;04.12.2018;FEY;;LION;49;14500;7200;192;5;89;92;8400;3000;4027;4027;1;13033;30.14;29.74;31,5;BCS1388054;7;14
009671;04.08.2021;07:25:08;Stop          ;04.12.2018;FEY;;LION;49;14500;7200;128;5;89;92;8400;3000;4055;4041;1;12976;30.14;31.04;31,6;BCS1388054;7;14
009671;25.08.2021;08:15:19;Charge to 60% ;04.12.2018;FEY;;LION;49;14500;7200;192;5;89;92;8400;3000;4019;4019;1;12991;30.44;32.84;33,5;BCS1388054;2;10
009671;25.08.2021;10:43:16;Stop          ;04.12.2018;FEY;;LION;49;14500;7200;192;6;58;60;8400;3000;3718;3716;1;12989;34.04;35.54;36,4;BCS1388054;2;10
009671;01.11.2021;09:52:14;Normalcharge  ;04.12.2018;FEY;;LION;49;14500;7200;192;6;52;55;8400;3000;3704;3702;1;13004;26.04;26.64;26,3;BCS1388054;2;3
009671;01.11.2021;09:53:17;Stop          ;04.12.2018;FEY;;LION;49;14500;7200;128;6;52;55;8400;3000;3791;3743;1;12523;26.04;29.64;26,8;BCS1388054;2;3
009671;01.11.2021;10:02:05;Normalcharge  ;04.12.2018;FEY;;LION;49;14500;7200;192;6;52;55;8400;3000;3706;3704;1;12997;26.14;28.94;29,5;BCS1388054;2;3
009671;01.11.2021;10:03:24;Stop          ;04.12.2018;FEY;;LION;49;14500;7200;128;6;53;55;8400;3000;3796;3748;1;12520;26.24;31.64;29,3;BCS1388054;2;3
009671;01.11.2021;10:18:11;Normalcharge  ;04.12.2018;FEY;;LION;49;14500;7200;192;6;53;55;8400;3000;3709;3707;1;12998;26.34;27.84;28,4;BCS1388054;2;3
009671;01.11.2021;10:18:48;Stop          ;04.12.2018;FEY;;LION;49;14500;7200;128;6;53;55;8400;3000;3770;3734;1;12592;26.34;29.34;28,2;BCS1388054;2;3
009671;01.11.2021;10:28:53;Normalcharge  ;04.12.2018;FEY;;LION;49;14500;7200;192;6;53;55;8400;3000;3710;3707;1;12998;26.44;28.34;28,2;BCS1388054;2;3
009671;01.11.2021;10:29:00;Stop          ;04.12.2018;FEY;;LION;49;14500;7200;192;6;53;55;8400;3000;3709;3708;1;12985;26.44;28.44;28,4;BCS1388054;2;3