File: reader/Batterieverzeichnis/009612.txt
Serialnumber ; Date ; Time ; Action ; Date of Manufacture ; Manufacturer ; Battery Name ; Device-Chemistry ; Specification-Info ; Design-Capacity [mAh] ; Design-Voltage [mV] ; Battery Status ; Cycle Count ; SOC [%] ; Relativ SOC[%] ; Desired Voltage [mV]; Desired Current [mA]; Cell Voltage 1 [mV] ; Cell Voltage 2 [mV] ; Max_Error [%] ; Busvoltage[mV] ; Battery Temperature [°C] ; Charger Temperature [°C] ; Batterysystem ; Case ; PLace
009612;07.12.2020;04:14:25;Cycle          ;04.12.2018;FEY;;LION;49;14500;7200;224;3;96;99;8400;;4144;4143;1;13002;25.74;26.84;30,3;BCS1388054;3;4
009612;08.12.2020;16:19:50;Stop           ;04.12.2018;FEY;;LION;49;14500;7200;224;5;97;100;8400;;4152;4152;1;13002;27.84;28.44;31,9;BCS1388054;3;4
009612;12.01.2021;04:17:33;Charge to 90% ;04.12.2018;FEY;;LION;49;14500;7200;224;5;95;99;8400;;4132;4132;1;12999;23.04;23.64;23,6;BCS1388054;4;5
009612;12.01.2021;04:57:16;Stop          ;04.12.2018;FEY;;LION;49;14500;7200;192;5;85;90;8400;3000;3944;3995;1;12994;27.84;30.94;31,6;BCS1388054;4;5
009612;12.01.2021;05:21:49;Cycle         ;04.12.2018;FEY;;LION;49;14500;7200;192;5;85;90;8400;3000;4049;4050;1;12995;27.54;27.14;30,4;BCS1388054;4;5
009612;13.01.2021;08:19:19;Stop          ;04.12.2018;FEY;;LION;49;14500;7200;224;6;95;100;8400;;4154;4154;1;12996;27.04;27.34;30,7;BCS1388054;4;5
009612;21.02.2021;13:43:19;Normalcharge  ;04.12.2018;FEY;;LION;49;14500;7200;192;6;92;97;8400;;4113;4113;1;13016;23.54;25.04;27,5;BCS1388054;1;16
009612;22.02.2021;17:08:49;Stop          ;04.12.2018;FEY;;LION;49;14500;7200;192;6;92;97;8400;;4113;4112;1;13015;26.14;26.84;30,0;BCS1388054;1;16
009612;04.04.2021;11:49:55;Normalcharge  ;04.12.2018;FEY;;LION;49;14500;7200;192;7;50;52;8400;3000;3667;3667;1;13029;25.04;25.54;27,5;BCS1388054;7;7
009612;04.04.2021;11:51:17;Stop          ;04.12.2018;FEY;;LION;49;14500;7200;128;7;50;52;8400;3000;3750;3705;1;12750;25.14;28.54;28,4;BCS1388054;7;7
009612;05.04.2021;09:38:17;Charge to 60% ;04.12.2018;FEY;;LION;49;14500;7200;192;7;50;52;8400;3000;3669;3670;1;13002;24.94;25.14;26,4;BCS1388054;5;6
009612;05.04.2021;10:34:50;Charge to 60% ;04.12.2018;FEY;;LION;49;14500;7200;192;7;57;60;8400;3000;3740;3742;1;12907;27.54;27.54;32,4;BCS1388054;5;6
009612;05.04.2021;13:16:09;Stop          ;04.12.2018;FEY;;LION;49;14500;7200;192;7;57;60;8400;3000;3738;3740;1;12999;27.44;27.74;32,2;BCS1388054;5;6
009612;22.08.2021;11:37:21;Normalcharge  ;04.12.2018;FEY;;LION;49;14500;7200;192;7;52;54;8400;3000;3664;3665;1;13010;21.94;28.74;31,9;BCS1388054;5;2
009612;22.08.2021;11:38:04;Stop          ;04.12.2018;FEY;;LION;49;14500;7200;128;7;52;54;8400;3000;3733;3694;1;12769;22.04;30.64;32,0;BCS1388054;5;2