File: reader/Batterieverzeichnis/009640.txt
Serialnumber ; Date ; Time ; Action ; Date of Manufacture ; Manufacturer ; Battery Name ; Device-Chemistry ; Specification-Info ; Design-Capacity [mAh] ; Design-Voltage [mV] ; Battery Status ; Cycle Count ; SOC [%] ; Relativ SOC[%] ; Desired Voltage [mV]; Desired Current [mA]; Cell Voltage 1 [mV] ; Cell Voltage 2 [mV] ; Max_Error [%] ; Busvoltage[mV] ; Battery Temperature [°C] ; Charger Temperature [°C] ; Batterysystem ; Case ; PLace
009640;10.12.2019;15:28:48;Ladung auf 30% ;04.12.2018;FEY;;LION;49;14500;7200;224;42;92;99;8400;;4132;4131;1;13011;23.04;24.04;27,1;BCS1388054;3;18
009640;10.12.2019;20:47:21;Stop           ;04.12.2018;FEY;;LION;49;14500;7200;192;43;29;30;8400;3000;3560;3560;1;13008;33.44;34.34;33,5;BCS1388054;3;18
009640;11.12.2019;08:48:36;Fastcharge    ;04.12.2018;FEY;;LION;49;14500;7200;192;43;29;31;8400;3000;3568;3569;1;13008;26.54;27.44;31,9;BCS1388054;3;18
009640;11.12.2019;13:39:41;Stop           ;04.12.2018;FEY;;LION;49;14500;7200;224;43;95;100;8400;;4161;4162;1;13006;29.84;30.54;32,5;BCS1388054;3;18
009640;11.12.2019;15:46:24;Ladung auf 10% ;04.12.2018;FEY;;LION;49;14500;7200;224;43;96;100;8400;;4153;4155;1;13009;27.24;28.14;31,4;BCS1388054;3;18
009640;11.12.2019;22:48:44;Stop           ;04.12.2018;FEY;;LION;49;14500;7200;192;44;10;10;8400;3000;3357;3358;1;13007;33.94;34.44;33,6;BCS1388054;3;18
009640;12.12.2019;08:44:58;Normalcharge  ;04.12.2018;FEY;;LION;49;14500;7200;192;44;9;10;8400;3000;3366;3367;1;13008;26.74;27.64;31,9;BCS1388054;3;18
009640;12.12.2019;16:39:24;Stop           ;04.12.2018;FEY;;LION;49;14500;7200;224;44;96;100;8400;;4161;4165;1;13009;29.24;30.04;31,7;BCS1388054;3;18
009640;13.12.2019;10:47:57;Ladung auf 10% ;04.12.2018;FEY;;LION;49;14500;7200;224;44;95;100;8400;;4150;4153;1;13008;26.74;27.74;32,0;BCS1388054;3;18
009640;13.12.2019;15:42:18;Stop           ;04.12.2018;FEY;;LION;49;14500;7200;192;45;34;36;8400;3000;3501;3554;1;13558;33.04;40.54;34,6;BCS1388054;3;18
009640;13.12.2019;15:42:20;Cycle          ;04.12.2018;FEY;;LION;49;14500;7200;192;45;34;36;8400;3000;3501;3554;1;13005;33.04;40.54;34,6;BCS1388054;3;18
009640;14.12.2019;22:36:33;Stop           ;04.12.2018;FEY;;LION;49;14500;7200;224;46;93;100;8400;;4153;4155;1;13009;26.74;27.54;31,6;BCS1388054;3;18
009640;16.12.2019;07:43:10;Ladung auf 10% ;04.12.2018;FEY;;LION;49;14500;7200;224;46;94;100;8400;;4147;4149;1;13009;26.34;27.04;31,9;BCS1388054;3;18
009640;16.12.2019;14:34:27;Stop           ;04.12.2018;FEY;;LION;49;14500;7200;192;47;10;10;8400;3000;3360;3363;1;13008;32.84;34.64;32,5;BCS1388054;3;18
009640;16.12.2019;14:44:07;Ladung auf 90% ;04.12.2018;FEY;;LION;49;14500;7200;192;47;10;10;8400;3000;3364;3367;1;13009;31.94;31.74;31,7;BCS1388054;3;18
009640;16.12.2019;20:48:39;Stop           ;04.12.2018;FEY;;LION;49;14500;7200;192;47;85;90;8400;3000;4059;4061;1;13008;31.64;33.44;31,9;BCS1388054;3;18
009640;17.12.2019;08:37:45;Fastcharge    ;04.12.2018;FEY;;LION;49;14500;7200;192;47;85;90;8400;3000;4046;4047;1;13009;26.54;27.44;31,5;BCS1388054;3;18
009640;17.12.2019;10:30:44;Stop           ;04.12.2018;FEY;;LION;49;14500;7200;224;47;95;100;8400;;4160;4160;1;13009;28.14;29.44;31,4;BCS1388054;3;18
009640;17.12.2019;13:38:28;Ladung auf 10% ;04.12.2018;FEY;;LION;49;14500;7200;224;47;95;100;8400;;4150;4150;1;13008;26.84;27.74;30,8;BCS1388054;3;18
009640;17.12.2019;20:32:04;Stop           ;04.12.2018;FEY;;LION;49;14500;7200;192;48;10;10;8400;3000;3359;3360;1;13008;34.24;36.04;34,6;BCS1388054;3;18
009640;18.12.2019;08:31:22;Fastcharge    ;04.12.2018;FEY;;LION;49;14500;7200;192;48;9;10;8400;3000;3370;3371;1;13008;26.64;27.64;31,6;BCS1388054;3;18
009640;18.12.2019;14:26:33;Stop           ;04.12.2018;FEY;;LION;49;14500;7200;224;48;94;100;8400;;4162;4160;1;13009;29.94;30.74;32,5;BCS1388054;3;18
009640;19.12.2019;08:23:54;Ladung auf 60% ;04.12.2018;FEY;;LION;49;14500;7200;224;48;95;100;8400;;4149;4148;1;13008;26.54;27.34;31,6;BCS1388054;3;18
009640;19.12.2019;11:28:29;Stop           ;04.12.2018;FEY;;LION;49;14500;7200;192;49;57;60;8400;3000;3762;3764;1;13007;34.24;37.94;35,1;BCS1388054;3;18
009640;19.12.2019;12:16:41;Cycle          ;04.12.2018;FEY;;LION;49;14500;7200;192;49;57;60;8400;3000;3778;3780;1;13008;30.14;30.34;32,7;BCS1388054;3;18
009640;20.12.2019;17:23:28;Stop           ;04.12.2018;FEY;;LION;49;14500;7200;224;50;94;100;8400;;4153;4152;1;13008;26.84;27.74;31,9;BCS1388054;3;18
009640;06.01.2020;06:34:46;Ladung auf 60% ;04.12.2018;FEY;;LION;49;14500;7200;224;50;92;99;8400;;4122;4121;1;13008;26.64;27.54;31,9;BCS1388054;3;18
009640;06.01.2020;09:29:20;Stop           ;04.12.2018;FEY;;LION;49;14500;7200;192;50;56;60;8400;3000;3759;3761;1;13008;33.34;37.54;34,2;BCS1388054;3;18
009640;06.01.2020;09:50:34;Fastcharge    ;04.12.2018;FEY;;LION;49;14500;7200;192;50;56;60;8400;3000;3774;3777;1;13009;31.44;31.14;32,7;BCS1388054;3;18
009640;06.01.2020;13:06:26;Stop           ;04.12.2018;FEY;;LION;49;14500;7200;224;50;94;100;8400;;4160;4161;1;13009;29.44;30.44;32,1;BCS1388054;3;18