File: reader/Batterieverzeichnis/009613.txt
Serialnumber ; Date ; Time ; Action ; Date of Manufacture ; Manufacturer ; Battery Name ; Device-Chemistry ; Specification-Info ; Design-Capacity [mAh] ; Design-Voltage [mV] ; Battery Status ; Cycle Count ; SOC [%] ; Relativ SOC[%] ; Desired Voltage [mV]; Desired Current [mA]; Cell Voltage 1 [mV] ; Cell Voltage 2 [mV] ; Max_Error [%] ; Busvoltage[mV] ; Battery Temperature [°C] ; Charger Temperature [°C] ; Batterysystem ; Case ; PLace
009613;07.12.2020;04:14:25;Cycle          ;04.12.2018;FEY;;LION;49;14500;7200;16576;4;98;99;;;4146;4145;1;12998;25.34;26.64;30,3;BCS1388054;3;6
009613;08.12.2020;16:19:50;Stop           ;04.12.2018;FEY;;LION;49;14500;7200;16576;4;98;100;;;4144;4142;1;12997;27.34;27.94;31,9;BCS1388054;3;6
009613;12.01.2021;04:17:40;Charge to 90% ;04.12.2018;FEY;;LION;49;14500;7200;16576;4;96;98;;;4129;4128;1;13017;22.74;24.24;23,6;BCS1388054;6;17
009613;12.01.2021;05:00:55;Stop          ;04.12.2018;FEY;;LION;49;14500;7200;192;4;89;90;8400;3000;4051;4050;1;13012;26.64;30.04;31,2;BCS1388054;6;17
009613;12.01.2021;05:21:57;Cycle         ;04.12.2018;FEY;;LION;49;14500;7200;192;4;89;90;8400;3000;4056;4055;1;13013;26.54;28.84;30,4;BCS1388054;6;17
009613;13.01.2021;08:31:18;Stop          ;04.12.2018;FEY;;LION;49;14500;7200;224;5;98;100;8400;;4155;4156;1;13011;26.44;28.84;31,1;BCS1388054;6;17
009613;21.02.2021;13:43:49;Normalcharge  ;04.12.2018;FEY;;LION;49;14500;7200;224;5;96;99;8400;;4131;4132;1;12998;22.54;23.64;27,7;BCS1388054;3;8
009613;21.02.2021;20:44:52;Stop           ;04.12.2018;FEY;;LION;49;14500;7200;224;5;96;99;8400;;4131;4132;1;12993;26.54;28.44;31,2;BCS1388054;3;8
009613;06.04.2021;08:39:03;Normalcharge  ;04.12.2018;FEY;;LION;49;14500;7200;192;5;95;98;8400;;4116;4116;1;13012;21.54;25.34;28,1;BCS1388054;4;1
009613;06.04.2021;08:39:53;Stop          ;04.12.2018;FEY;;LION;49;14500;7200;192;5;95;98;8400;;4116;4116;1;13009;21.64;25.74;28,4;BCS1388054;4;1
009613;08.04.2021;07:58:12;Normalcharge  ;04.12.2018;FEY;;LION;49;14500;7200;192;5;95;98;8400;;4115;4115;1;13011;24.84;21.54;26,3;BCS1388054;4;1
009613;08.04.2021;07:59:34;Stop          ;04.12.2018;FEY;;LION;49;14500;7200;192;5;95;98;8400;;4115;4115;1;12989;24.84;26.24;26,7;BCS1388054;4;1
009613;08.04.2021;10:36:07;Normalcharge  ;04.12.2018;FEY;;LION;49;14500;7200;192;5;95;98;8400;;4115;4115;1;13010;25.14;26.34;28,5;BCS1388054;4;1
009613;08.04.2021;10:37:03;Stop          ;04.12.2018;FEY;;LION;49;14500;7200;192;5;95;98;8400;;4115;4115;1;12984;25.14;26.84;29,0;BCS1388054;4;1
009613;18.04.2021;08:34:04;Normalcharge  ;04.12.2018;FEY;;LION;49;14500;7200;192;5;95;97;8400;;4112;4112;1;13011;25.74;27.14;27,9;BCS1388054;4;1
009613;18.04.2021;08:34:10;Stop          ;04.12.2018;FEY;;LION;49;14500;7200;192;5;95;97;8400;;4112;4112;1;13009;25.74;27.14;28,1;BCS1388054;4;1
009613;04.08.2021;07:24:46;Normalcharge  ;04.12.2018;FEY;;LION;49;14500;7200;192;5;94;96;8400;;4084;4084;1;13007;29.94;30.94;31,5;BCS1388054;4;1
009613;04.08.2021;07:25:30;Stop          ;04.12.2018;FEY;;LION;49;14500;7200;192;5;94;96;8400;;4084;4084;1;12981;29.94;31.44;31,7;BCS1388054;4;1
009613;22.08.2021;11:37:17;Normalcharge  ;04.12.2018;FEY;;LION;49;14500;7200;192;5;92;94;8400;3000;4079;4080;1;13005;22.44;29.24;31,9;BCS1388054;6;3
009613;22.08.2021;11:37:57;Stop          ;04.12.2018;FEY;;LION;49;14500;7200;128;5;92;94;8400;3000;4111;4098;1;12881;22.54;30.64;32,0;BCS1388054;6;3
009613;14.10.2021;12:39:51;Normalcharge  ;04.12.2018;FEY;;LION;49;14500;7200;192;6;68;71;8400;3000;3856;3856;1;12992;24.24;26.44;27,9;BCS1388054;1;5
009613;14.10.2021;12:41:14;Stop          ;04.12.2018;FEY;;LION;49;14500;7200;128;6;69;71;8400;3000;3948;3900;1;12471;24.34;29.24;28,2;BCS1388054;1;5
009613;07.02.2022;08:51:51;Normalcharge  ;04.12.2018;FEY;;LION;49;14500;7200;192;6;69;71;8400;3000;3831;3831;1;13010;22.14;23.64;25,6;BCS1388054;1;6
009613;07.02.2022;13:16:30;Stop          ;04.12.2018;FEY;;LION;49;14500;7200;224;6;97;100;8400;;4152;4151;1;13007;24.94;27.24;31,2;BCS1388054;1;6
009613;14.03.2022;12:14:26;Normalcharge  ;04.12.2018;FEY;;LION;49;14500;7200;224;6;95;99;8400;;4129;4128;1;13017;23.64;24.34;27,5;BCS1388054;5;17
009613;14.03.2022;12:18:30;Stop          ;04.12.2018;FEY;;LION;49;14500;7200;224;6;95;99;8400;;4128;4128;1;13015;23.74;25.34;29,5;BCS1388054;5;17