File: reader/Batterieverzeichnis/009686.txt
Serialnumber ; Date ; Time ; Action ; Date of Manufacture ; Manufacturer ; Battery Name ; Device-Chemistry ; Specification-Info ; Design-Capacity [mAh] ; Design-Voltage [mV] ; Battery Status ; Cycle Count ; SOC [%] ; Relativ SOC[%] ; Desired Voltage [mV]; Desired Current [mA]; Cell Voltage 1 [mV] ; Cell Voltage 2 [mV] ; Max_Error [%] ; Busvoltage[mV] ; Battery Temperature [°C] ; Charger Temperature [°C] ; Batterysystem ; Case ; PLace
009686;07.12.2020;04:14:17;Cycle         ;04.12.2018;FEY;;LION;49;14500;7200;224;2;99;99;8400;;4148;4149;1;13011;25.64;27.14;30,3;BCS1388054;1;16
009686;08.12.2020;16:19:38;Stop          ;04.12.2018;FEY;;LION;49;14500;7200;224;3;97;100;8400;;4153;4152;1;13010;27.34;28.44;31,9;BCS1388054;1;16
009686;03.03.2021;08:17:08;Normalcharge  ;04.12.2018;FEY;;LION;49;14500;7200;192;3;95;98;8400;;4116;4116;1;12997;23.04;22.84;23,5;BCS1388054;1;4
009686;04.03.2021;07:53:50;Stop          ;04.12.2018;FEY;;LION;49;14500;7200;192;3;95;98;8400;;4116;4115;1;12991;26.04;27.14;31,6;BCS1388054;1;4
009686;04.04.2021;11:50:02;Normalcharge  ;04.12.2018;FEY;;LION;49;14500;7200;2768;4;;;8400;3000;3093;3087;1;13014;24.74;26.34;27,7;BCS1388054;6;17
009686;04.04.2021;11:51:24;Stop          ;04.12.2018;FEY;;LION;49;14500;7200;144;4;;;8400;3000;3260;3206;1;12667;24.74;29.74;28,5;BCS1388054;6;17
009686;05.04.2021;09:38:25;Charge to 60% ;04.12.2018;FEY;;LION;49;14500;7200;720;4;;;8400;3000;3117;3111;1;13001;24.94;27.04;26,6;BCS1388054;6;2
009686;05.04.2021;13:29:53;Stop          ;04.12.2018;FEY;;LION;49;14500;7200;128;4;47;49;8400;3000;3776;3726;1;12924;29.74;35.34;31,9;BCS1388054;6;2
009686;06.04.2021;07:40:17;Charge to 60% ;04.12.2018;FEY;;LION;49;14500;7200;192;4;50;53;8400;3000;3674;3673;1;13003;24.84;25.84;25,1;BCS1388054;6;2
009686;06.04.2021;08:24:55;Stop          ;04.12.2018;FEY;;LION;49;14500;7200;192;4;57;60;8400;3000;3743;3742;1;12999;26.44;29.34;27,8;BCS1388054;6;2
009686;22.08.2021;11:08:18;Normalcharge  ;04.12.2018;FEY;;LION;49;14500;7200;192;4;52;54;8400;3000;3681;3680;1;13024;29.74;30.64;32,2;BCS1388054;7;1
009686;22.08.2021;11:08:50;Stop          ;04.12.2018;FEY;;LION;49;14500;7200;128;4;52;54;8400;3000;3702;3690;1;12862;29.64;31.84;32,6;BCS1388054;7;1
009686;25.08.2021;08:15:19;Charge to 60% ;04.12.2018;FEY;;LION;49;14500;7200;192;4;52;54;8400;3000;3681;3680;1;12993;30.24;32.34;33,5;BCS1388054;2;1
009686;25.08.2021;10:43:16;Stop          ;04.12.2018;FEY;;LION;49;14500;7200;192;4;57;60;8400;3000;3739;3738;1;12990;32.64;34.74;36,4;BCS1388054;2;1
009686;01.11.2021;09:52:14;Normalcharge  ;04.12.2018;FEY;;LION;49;14500;7200;192;4;54;56;8400;3000;3708;3706;1;13003;25.94;26.34;26,3;BCS1388054;2;8
009686;01.11.2021;09:53:18;Stop          ;04.12.2018;FEY;;LION;49;14500;7200;128;4;54;56;8400;3000;3795;3746;1;12521;25.84;28.84;26,8;BCS1388054;2;8
009686;01.11.2021;10:02:05;Normalcharge  ;04.12.2018;FEY;;LION;49;14500;7200;192;4;54;56;8400;3000;3710;3709;1;12995;26.04;28.24;29,5;BCS1388054;2;8
009686;01.11.2021;10:03:24;Stop          ;04.12.2018;FEY;;LION;49;14500;7200;128;4;54;56;8400;3000;3803;3751;1;12508;26.04;30.84;29,3;BCS1388054;2;8
009686;01.11.2021;10:18:11;Normalcharge  ;04.12.2018;FEY;;LION;49;14500;7200;192;4;54;56;8400;3000;3713;3712;1;12997;26.24;27.44;28,4;BCS1388054;2;8
009686;01.11.2021;10:18:48;Stop          ;04.12.2018;FEY;;LION;49;14500;7200;128;4;54;56;8400;3000;3775;3738;1;12627;26.14;28.84;28,2;BCS1388054;2;8
009686;01.11.2021;10:28:53;Normalcharge  ;04.12.2018;FEY;;LION;49;14500;7200;192;4;54;56;8400;3000;3714;3713;1;12996;26.24;27.74;28,2;BCS1388054;2;8
009686;01.11.2021;10:29:00;Stop          ;04.12.2018;FEY;;LION;49;14500;7200;192;4;54;56;8400;3000;3714;3713;1;12984;26.24;27.74;28,4;BCS1388054;2;8