File: reader/Batterieverzeichnis/009647.txt
Serialnumber ; Date ; Time ; Action ; Date of Manufacture ; Manufacturer ; Battery Name ; Device-Chemistry ; Specification-Info ; Design-Capacity [mAh] ; Design-Voltage [mV] ; Battery Status ; Cycle Count ; SOC [%] ; Relativ SOC[%] ; Desired Voltage [mV]; Desired Current [mA]; Cell Voltage 1 [mV] ; Cell Voltage 2 [mV] ; Max_Error [%] ; Busvoltage[mV] ; Battery Temperature [°C] ; Charger Temperature [°C] ; Batterysystem ; Case ; PLace
009647;07.12.2020;04:14:25;Cycle          ;04.12.2018;FEY;;LION;49;14500;7200;192;3;98;98;8400;;4145;4146;1;12999;26.04;26.84;30,3;BCS1388054;3;12
009647;08.12.2020;16:19:50;Stop           ;04.12.2018;FEY;;LION;49;14500;7200;192;3;98;98;8400;;4143;4143;1;13000;27.94;28.44;31,9;BCS1388054;3;12
009647;12.01.2021;04:17:40;Charge to 90% ;04.12.2018;FEY;;LION;49;14500;7200;192;3;97;97;8400;;4128;4128;1;12987;23.24;22.64;23,6;BCS1388054;6;16
009647;12.01.2021;05:00:55;Stop          ;04.12.2018;FEY;;LION;49;14500;7200;192;4;92;90;8400;3000;4061;4060;1;12983;26.84;28.04;31,2;BCS1388054;6;16
009647;12.01.2021;05:21:57;Cycle         ;04.12.2018;FEY;;LION;49;14500;7200;192;4;92;90;8400;3000;4065;4064;1;12984;26.94;27.14;30,4;BCS1388054;6;16
009647;13.01.2021;08:31:18;Stop          ;04.12.2018;FEY;;LION;49;14500;7200;224;5;97;99;8400;;4156;4153;1;12983;27.04;27.04;31,1;BCS1388054;6;16
009647;03.03.2021;08:17:46;Normalcharge  ;04.12.2018;FEY;;LION;49;14500;7200;192;5;53;55;8400;3000;3700;3696;1;13034;23.24;24.24;23,6;BCS1388054;7;8
009647;03.03.2021;10:54:05;Stop          ;04.12.2018;FEY;;LION;49;14500;7200;128;5;85;88;8400;3000;4127;4077;1;12709;31.14;35.84;31,4;BCS1388054;7;8
009647;03.03.2021;10:55:49;Normalcharge  ;04.12.2018;FEY;;LION;49;14500;7200;192;5;85;88;8400;3000;4038;4036;1;13028;31.04;33.24;30,6;BCS1388054;7;8
009647;03.03.2021;17:03:24;Stop          ;04.12.2018;FEY;;LION;49;14500;7200;224;5;98;100;8400;;4152;4152;1;13029;26.64;28.54;31,4;BCS1388054;7;8
009647;04.04.2021;11:50:39;Normalcharge  ;04.12.2018;FEY;;LION;49;14500;7200;192;6;53;55;8400;3000;3696;3694;1;13004;25.14;27.54;28,1;BCS1388054;1;3
009647;04.04.2021;11:51:54;Stop          ;04.12.2018;FEY;;LION;49;14500;7200;128;6;54;55;8400;3000;3784;3734;1;12575;25.14;30.44;28,8;BCS1388054;1;3
009647;05.04.2021;09:37:37;Charge to 60% ;04.12.2018;FEY;;LION;49;14500;7200;192;6;54;55;8400;3000;3699;3696;1;12999;25.34;27.04;26,0;BCS1388054;1;15
009647;05.04.2021;10:01:53;Stop          ;04.12.2018;FEY;;LION;49;14500;7200;192;6;58;60;8400;3000;3764;3759;1;12995;27.24;32.24;31,2;BCS1388054;1;15
009647;22.08.2021;11:08:18;Normalcharge  ;04.12.2018;FEY;;LION;49;14500;7200;192;6;54;55;8400;3000;3702;3699;1;13005;29.94;30.44;32,2;BCS1388054;7;9
009647;22.08.2021;11:08:51;Stop          ;04.12.2018;FEY;;LION;49;14500;7200;128;6;54;55;8400;3000;3727;3710;1;12818;29.94;31.54;32,6;BCS1388054;7;9
009647;25.08.2021;08:15:19;Charge to 60% ;04.12.2018;FEY;;LION;49;14500;7200;192;6;54;55;8400;3000;3702;3699;1;13002;30.44;31.34;33,5;BCS1388054;2;6
009647;25.08.2021;10:43:16;Stop          ;04.12.2018;FEY;;LION;49;14500;7200;192;6;58;60;8400;3000;3753;3749;1;13002;32.74;33.24;36,4;BCS1388054;2;6
009647;01.11.2021;09:51:48;Normalcharge  ;04.12.2018;FEY;;LION;49;14500;7200;192;6;56;57;8400;3000;3721;3718;1;13022;26.04;25.14;26,3;BCS1388054;7;15
009647;01.11.2021;09:53:51;Stop          ;04.12.2018;FEY;;LION;49;14500;7200;128;6;56;57;8400;3000;3817;3766;1;12658;26.14;29.54;27,4;BCS1388054;7;15
009647;01.11.2021;10:02:29;Normalcharge  ;04.12.2018;FEY;;LION;49;14500;7200;192;6;56;57;8400;3000;3726;3723;1;13017;26.24;27.34;29,5;BCS1388054;7;15
009647;01.11.2021;10:03:04;Stop          ;04.12.2018;FEY;;LION;49;14500;7200;128;6;56;57;8400;3000;3790;3750;1;12682;26.24;28.64;29,3;BCS1388054;7;15
009647;01.11.2021;10:27:23;Normalcharge  ;04.12.2018;FEY;;LION;49;14500;7200;192;6;56;57;8400;3000;3726;3723;1;13019;26.44;25.94;27,7;BCS1388054;7;15
009647;01.11.2021;10:29:22;Stop          ;04.12.2018;FEY;;LION;49;14500;7200;128;6;56;58;8400;3000;3822;3772;1;12660;26.54;30.24;28,6;BCS1388054;7;15