File: reader/Batterieverzeichnis/009661.txt
Serialnumber ; Date ; Time ; Action ; Date of Manufacture ; Manufacturer ; Battery Name ; Device-Chemistry ; Specification-Info ; Design-Capacity [mAh] ; Design-Voltage [mV] ; Battery Status ; Cycle Count ; SOC [%] ; Relativ SOC[%] ; Desired Voltage [mV]; Desired Current [mA]; Cell Voltage 1 [mV] ; Cell Voltage 2 [mV] ; Max_Error [%] ; Busvoltage[mV] ; Battery Temperature [°C] ; Charger Temperature [°C] ; Batterysystem ; Case ; PLace
009661;07.12.2020;04:14:21;Cycle         ;03.12.2018;FEY;;LION;49;14500;7200;224;3;97;99;8400;;4137;4136;1;13009;24.94;27.54;30,3;BCS1388054;2;9
009661;08.12.2020;16:19:44;Stop          ;03.12.2018;FEY;;LION;49;14500;7200;224;4;98;100;8400;;4153;4153;1;13009;27.14;29.14;31,9;BCS1388054;2;9
009661;03.03.2021;08:17:08;Normalcharge  ;03.12.2018;FEY;;LION;49;14500;7200;192;4;95;98;8400;;4117;4117;1;12998;22.44;23.04;23,5;BCS1388054;1;5
009661;04.03.2021;07:53:50;Stop          ;03.12.2018;FEY;;LION;49;14500;7200;192;4;95;98;8400;;4116;4116;1;12992;25.34;26.64;31,6;BCS1388054;1;5
009661;04.04.2021;11:50:10;Normalcharge  ;03.12.2018;FEY;;LION;49;14500;7200;192;4;51;52;8400;3000;3674;3673;1;13018;24.24;25.94;27,8;BCS1388054;5;9
009661;04.04.2021;11:51:30;Stop          ;03.12.2018;FEY;;LION;49;14500;7200;128;4;51;53;8400;3000;3762;3712;1;12679;24.24;28.84;28,5;BCS1388054;5;9
009661;05.04.2021;09:38:11;Charge to 60% ;03.12.2018;FEY;;LION;49;14500;7200;192;4;51;53;8400;3000;3675;3675;1;12992;24.34;25.64;26,3;BCS1388054;4;11
009661;05.04.2021;10:13:52;Stop          ;03.12.2018;FEY;;LION;49;14500;7200;192;4;58;60;8400;3000;3757;3759;1;12989;27.14;28.54;32,1;BCS1388054;4;11
009661;22.08.2021;11:37:30;Normalcharge  ;03.12.2018;FEY;;LION;49;14500;7200;192;4;54;56;8400;3000;3700;3700;1;13008;20.54;28.24;31,9;BCS1388054;3;15
009661;22.08.2021;11:38:19;Stop           ;03.12.2018;FEY;;LION;49;14500;7200;128;4;54;56;8400;3000;3787;3741;1;12566;20.74;30.54;32,1;BCS1388054;3;15