File: reader/Batterieverzeichnis/009662.txt
Serialnumber ; Date ; Time ; Action ; Date of Manufacture ; Manufacturer ; Battery Name ; Device-Chemistry ; Specification-Info ; Design-Capacity [mAh] ; Design-Voltage [mV] ; Battery Status ; Cycle Count ; SOC [%] ; Relativ SOC[%] ; Desired Voltage [mV]; Desired Current [mA]; Cell Voltage 1 [mV] ; Cell Voltage 2 [mV] ; Max_Error [%] ; Busvoltage[mV] ; Battery Temperature [°C] ; Charger Temperature [°C] ; Batterysystem ; Case ; PLace
009662;30.11.2020;09:42:55;Stop          ;03.12.2018;FEY;;LION;49;14500;7200;224;3;98;100;8400;;4155;4154;1;13006;27.14;28.74;31,7;BCS1388054;7;9
009662;07.02.2021;08:46:54;Normalcharge  ;03.12.2018;FEY;;LION;49;14500;7200;192;3;92;94;8400;3000;4078;4078;1;13004;23.04;24.94;29,2;BCS1388054;3;18
009662;07.02.2021;11:52:16;Stop           ;03.12.2018;FEY;;LION;49;14500;7200;224;3;98;100;8400;;4151;4150;1;13004;25.24;26.64;29,7;BCS1388054;3;18
009662;03.03.2021;08:17:29;Normalcharge  ;03.12.2018;FEY;;LION;49;14500;7200;192;3;84;87;8400;3000;3995;3994;1;13007;22.54;23.14;23,5;BCS1388054;4;13
009662;03.03.2021;10:32:46;Stop          ;03.12.2018;FEY;;LION;49;14500;7200;224;3;98;100;8400;;4158;4157;1;13001;28.04;29.64;32,0;BCS1388054;4;13
009662;04.04.2021;11:50:02;Normalcharge  ;03.12.2018;FEY;;LION;49;14500;7200;192;4;53;55;8400;3000;3693;3693;1;13003;24.34;25.24;27,7;BCS1388054;6;4
009662;04.04.2021;11:51:24;Stop          ;03.12.2018;FEY;;LION;49;14500;7200;128;4;53;55;8400;3000;3783;3733;1;12679;24.34;28.54;28,5;BCS1388054;6;4
009662;05.04.2021;09:37:46;Charge to 60% ;03.12.2018;FEY;;LION;49;14500;7200;192;4;53;55;8400;3000;3695;3695;1;12990;24.44;26.24;26,1;BCS1388054;2;18
009662;05.04.2021;10:03:48;Stop          ;03.12.2018;FEY;;LION;49;14500;7200;192;4;58;60;8400;3000;3764;3762;1;12986;26.64;31.04;31,4;BCS1388054;2;18
009662;04.08.2021;07:25:01;Normalcharge  ;03.12.2018;FEY;;LION;49;14500;7200;192;4;54;56;8400;3000;3700;3700;1;13008;21.14;30.44;31,5;BCS1388054;1;16
009662;04.08.2021;07:25:57;Stop          ;03.12.2018;FEY;;LION;49;14500;7200;128;4;54;56;8400;3000;3792;3742;1;12789;21.34;32.44;31,9;BCS1388054;1;16
009662;25.08.2021;08:15:19;Charge to 60% ;03.12.2018;FEY;;LION;49;14500;7200;192;4;54;56;8400;3000;3699;3698;1;12988;29.84;31.14;33,5;BCS1388054;2;11
009662;25.08.2021;10:43:16;Stop          ;03.12.2018;FEY;;LION;49;14500;7200;192;4;58;60;8400;3000;3749;3747;1;12988;32.24;33.24;36,4;BCS1388054;2;11
009662;01.11.2021;09:51:48;Normalcharge  ;03.12.2018;FEY;;LION;49;14500;7200;192;4;56;57;8400;3000;3717;3717;1;13026;25.34;26.44;26,3;BCS1388054;7;10
009662;01.11.2021;09:53:51;Stop          ;03.12.2018;FEY;;LION;49;14500;7200;128;4;56;58;8400;3000;3812;3764;1;12659;25.44;30.54;27,4;BCS1388054;7;10
009662;01.11.2021;10:02:29;Normalcharge  ;03.12.2018;FEY;;LION;49;14500;7200;192;4;56;58;8400;3000;3722;3722;1;13021;25.54;28.04;29,5;BCS1388054;7;10
009662;01.11.2021;10:03:04;Stop          ;03.12.2018;FEY;;LION;49;14500;7200;128;4;56;58;8400;3000;3781;3748;1;12696;25.54;29.24;29,3;BCS1388054;7;10
009662;01.11.2021;10:27:23;Normalcharge  ;03.12.2018;FEY;;LION;49;14500;7200;192;4;56;58;8400;3000;3723;3722;1;13023;25.74;27.24;27,7;BCS1388054;7;10
009662;01.11.2021;10:29:22;Stop          ;03.12.2018;FEY;;LION;49;14500;7200;128;4;56;58;8400;3000;3818;3769;1;12659;25.84;31.24;28,6;BCS1388054;7;10