File: reader/Batterieverzeichnis/009677.txt
Serialnumber ; Date ; Time ; Action ; Date of Manufacture ; Manufacturer ; Battery Name ; Device-Chemistry ; Specification-Info ; Design-Capacity [mAh] ; Design-Voltage [mV] ; Battery Status ; Cycle Count ; SOC [%] ; Relativ SOC[%] ; Desired Voltage [mV]; Desired Current [mA]; Cell Voltage 1 [mV] ; Cell Voltage 2 [mV] ; Max_Error [%] ; Busvoltage[mV] ; Battery Temperature [°C] ; Charger Temperature [°C] ; Batterysystem ; Case ; PLace
009677;01.12.2020;07:38:36;Cycle         ;30.11.2018;FEY;;LION;49;14500;7200;192;3;18;19;8400;3000;3443;3441;1;13007;24.94;26.04;28,8;BCS1388054;2;2
009677;02.12.2020;16:21:01;Stop          ;30.11.2018;FEY;;LION;49;14500;7200;224;4;98;100;8400;;4156;4157;1;13000;26.14;28.94;29,3;BCS1388054;2;2
009677;03.03.2021;08:17:46;Normalcharge  ;30.11.2018;FEY;;LION;49;14500;7200;2768;5;;;8400;3000;3062;3051;1;13035;22.64;23.04;23,6;BCS1388054;7;16
009677;03.03.2021;10:54:05;Stop          ;30.11.2018;FEY;;LION;49;14500;7200;128;5;31;32;8400;3000;3680;3626;1;12696;30.14;33.74;31,4;BCS1388054;7;16
009677;06.04.2021;08:39:21;Normalcharge  ;30.11.2018;FEY;;LION;49;14500;7200;192;5;53;54;8400;3000;3684;3684;1;13012;20.64;24.94;28,1;BCS1388054;7;9
009677;06.04.2021;08:40:08;Stop          ;30.11.2018;FEY;;LION;49;14500;7200;128;5;53;54;8400;3000;3764;3720;1;12930;20.74;26.64;28,5;BCS1388054;7;9
009677;08.04.2021;07:59:03;Normalcharge  ;30.11.2018;FEY;;LION;49;14500;7200;192;5;51;52;8400;3000;3666;3666;1;13013;24.64;25.24;26,4;BCS1388054;7;9
009677;08.04.2021;07:59:16;Stop          ;30.11.2018;FEY;;LION;49;14500;7200;192;5;51;52;8400;3000;3665;3666;1;13011;24.64;25.34;26,6;BCS1388054;7;9
009677;08.04.2021;10:36:43;Normalcharge  ;30.11.2018;FEY;;LION;49;14500;7200;192;5;51;52;8400;3000;3665;3666;1;13011;24.84;26.14;28,9;BCS1388054;7;9
009677;08.04.2021;10:37:15;Stop          ;30.11.2018;FEY;;LION;49;14500;7200;128;5;51;52;8400;3000;3708;3684;1;12944;24.84;27.24;29,2;BCS1388054;7;9
009677;18.04.2021;08:34:46;Normalcharge  ;30.11.2018;FEY;;LION;49;14500;7200;192;5;51;52;8400;3000;3664;3664;1;13009;25.54;26.94;28,2;BCS1388054;7;9
009677;18.04.2021;08:34:54;Stop          ;30.11.2018;FEY;;LION;49;14500;7200;192;5;51;52;8400;3000;3663;3664;1;13008;25.54;27.04;28,4;BCS1388054;7;9
009677;04.08.2021;07:24:29;Normalcharge  ;30.11.2018;FEY;;LION;49;14500;7200;192;5;51;52;8400;3000;3645;3645;1;13007;29.54;30.44;31,5;BCS1388054;7;9
009677;04.08.2021;07:25:08;Stop          ;30.11.2018;FEY;;LION;49;14500;7200;128;5;51;52;8400;3000;3682;3660;1;12960;29.54;31.64;31,6;BCS1388054;7;9
009677;25.08.2021;08:15:19;Charge to 60% ;30.11.2018;FEY;;LION;49;14500;7200;192;5;49;50;8400;3000;3641;3642;1;12978;29.84;32.34;33,5;BCS1388054;2;15
009677;25.08.2021;10:43:17;Stop          ;30.11.2018;FEY;;LION;49;14500;7200;192;5;58;60;8400;3000;3728;3728;1;12978;32.54;35.14;36,4;BCS1388054;2;15