File: reader/Batterieverzeichnis/009650.txt
Serialnumber ; Date ; Time ; Action ; Date of Manufacture ; Manufacturer ; Battery Name ; Device-Chemistry ; Specification-Info ; Design-Capacity [mAh] ; Design-Voltage [mV] ; Battery Status ; Cycle Count ; SOC [%] ; Relativ SOC[%] ; Desired Voltage [mV]; Desired Current [mA]; Cell Voltage 1 [mV] ; Cell Voltage 2 [mV] ; Max_Error [%] ; Busvoltage[mV] ; Battery Temperature [°C] ; Charger Temperature [°C] ; Batterysystem ; Case ; PLace
009650;07.12.2020;04:14:32;Cycle         ;04.12.2018;FEY;;LION;49;14500;7200;16576;4;97;98;;;4142;4141;1;13007;25.54;27.04;30,3;BCS1388054;5;11
009650;08.12.2020;16:20:01;Stop          ;04.12.2018;FEY;;LION;49;14500;7200;16576;4;97;98;;;4139;4139;1;13005;27.54;28.54;31,7;BCS1388054;5;11
009650;12.01.2021;04:17:40;Charge to 90% ;04.12.2018;FEY;;LION;49;14500;7200;16576;4;96;97;;;4125;4125;1;12998;22.84;23.84;23,6;BCS1388054;6;18
009650;12.01.2021;05:00:55;Stop          ;04.12.2018;FEY;;LION;49;14500;7200;192;4;90;90;8400;3000;4062;4062;1;12992;27.14;29.44;31,2;BCS1388054;6;18
009650;12.01.2021;05:21:57;Cycle         ;04.12.2018;FEY;;LION;49;14500;7200;192;4;90;90;8400;3000;4065;4065;1;12994;26.84;28.34;30,4;BCS1388054;6;18
009650;13.01.2021;08:31:18;Stop          ;04.12.2018;FEY;;LION;49;14500;7200;224;5;98;100;8400;;4155;4155;1;12993;26.54;28.34;31,1;BCS1388054;6;18
009650;21.02.2021;13:43:32;Normalcharge  ;04.12.2018;FEY;;LION;49;14500;7200;224;5;96;99;8400;;4130;4130;1;12989;23.14;25.24;27,5;BCS1388054;2;15
009650;21.02.2021;19:27:00;Stop          ;04.12.2018;FEY;;LION;49;14500;7200;224;5;96;99;8400;;4130;4130;1;12990;26.84;28.54;31,1;BCS1388054;2;15
009650;04.04.2021;11:50:33;Normalcharge  ;04.12.2018;FEY;;LION;49;14500;7200;192;6;53;54;8400;3000;3688;3689;1;13005;24.84;26.64;27,9;BCS1388054;2;1
009650;04.04.2021;11:51:48;Stop          ;04.12.2018;FEY;;LION;49;14500;7200;128;6;53;54;8400;3000;3778;3729;1;12621;24.84;29.34;28,6;BCS1388054;2;1
009650;05.04.2021;09:37:46;Charge to 60% ;04.12.2018;FEY;;LION;49;14500;7200;192;6;53;54;8400;3000;3690;3691;1;13005;24.94;25.74;26,1;BCS1388054;2;14
009650;05.04.2021;10:03:48;Stop          ;04.12.2018;FEY;;LION;49;14500;7200;128;6;58;60;8400;3000;3766;3768;1;13001;27.14;33.54;31,4;BCS1388054;2;14
009650;22.08.2021;11:08:13;Normalcharge  ;04.12.2018;FEY;;LION;49;14500;7200;192;6;54;55;8400;3000;3699;3699;1;13002;29.54;29.74;32,2;BCS1388054;6;4
009650;22.08.2021;11:08:46;Stop          ;04.12.2018;FEY;;LION;49;14500;7200;128;6;54;55;8400;3000;3729;3713;1;12821;29.64;30.94;32,5;BCS1388054;6;4