File: reader/Batterieverzeichnis/009673.txt
Serialnumber ; Date ; Time ; Action ; Date of Manufacture ; Manufacturer ; Battery Name ; Device-Chemistry ; Specification-Info ; Design-Capacity [mAh] ; Design-Voltage [mV] ; Battery Status ; Cycle Count ; SOC [%] ; Relativ SOC[%] ; Desired Voltage [mV]; Desired Current [mA]; Cell Voltage 1 [mV] ; Cell Voltage 2 [mV] ; Max_Error [%] ; Busvoltage[mV] ; Battery Temperature [°C] ; Charger Temperature [°C] ; Batterysystem ; Case ; PLace
009673;07.12.2020;04:14:25;Cycle          ;04.12.2018;FEY;;LION;49;14500;7200;192;2;98;98;8400;;4141;4142;1;12993;25.54;28.14;30,3;BCS1388054;3;8
009673;08.12.2020;16:19:50;Stop           ;04.12.2018;FEY;;LION;49;14500;7200;192;2;98;98;8400;;4139;4140;1;12992;27.84;29.84;31,9;BCS1388054;3;8
009673;12.01.2021;04:17:47;Charge to 90% ;04.12.2018;FEY;;LION;49;14500;7200;192;2;96;97;8400;;4124;4126;1;13032;22.94;23.34;23,8;BCS1388054;7;4
009673;12.01.2021;04:57:19;Stop          ;04.12.2018;FEY;;LION;49;14500;7200;192;2;90;90;8400;3000;4061;4061;1;13028;26.44;28.24;31,5;BCS1388054;7;4
009673;12.01.2021;05:22:01;Cycle         ;04.12.2018;FEY;;LION;49;14500;7200;192;2;90;90;8400;3000;4065;4066;1;13028;26.54;27.04;30,4;BCS1388054;7;4
009673;13.01.2021;08:19:29;Stop          ;04.12.2018;FEY;;LION;49;14500;7200;224;4;97;100;8400;;4155;4157;1;13028;26.34;27.14;30,7;BCS1388054;7;4
009673;06.04.2021;08:39:16;Normalcharge  ;04.12.2018;FEY;;LION;49;14500;7200;192;4;95;98;8400;;4114;4116;1;12991;21.24;26.24;28,1;BCS1388054;6;13
009673;06.04.2021;08:40:03;Stop          ;04.12.2018;FEY;;LION;49;14500;7200;192;4;95;98;8400;;4114;4116;1;12970;21.24;26.34;28,5;BCS1388054;6;13
009673;08.04.2021;07:58:44;Normalcharge  ;04.12.2018;FEY;;LION;49;14500;7200;192;4;95;98;8400;;4115;4116;1;12994;25.04;25.54;26,4;BCS1388054;6;13
009673;08.04.2021;07:59:23;Stop          ;04.12.2018;FEY;;LION;49;14500;7200;192;4;95;98;8400;;4114;4116;1;12993;25.04;26.14;26,7;BCS1388054;6;13
009673;08.04.2021;10:36:16;Normalcharge  ;04.12.2018;FEY;;LION;49;14500;7200;192;4;95;98;8400;;4114;4116;1;12992;25.34;26.74;28,6;BCS1388054;6;13
009673;08.04.2021;10:37:11;Stop          ;04.12.2018;FEY;;LION;49;14500;7200;192;4;95;98;8400;;4114;4116;1;12973;25.34;27.14;29,2;BCS1388054;6;13
009673;18.04.2021;08:34:33;Normalcharge  ;04.12.2018;FEY;;LION;49;14500;7200;192;4;95;97;8400;;4112;4113;1;12991;25.94;27.64;28,2;BCS1388054;6;13
009673;18.04.2021;08:34:41;Stop          ;04.12.2018;FEY;;LION;49;14500;7200;192;4;95;97;8400;;4112;4113;1;12990;25.94;27.64;28,2;BCS1388054;6;13
009673;04.08.2021;07:24:35;Normalcharge  ;04.12.2018;FEY;;LION;49;14500;7200;192;4;94;97;8400;;4084;4085;1;12989;29.94;31.24;31,5;BCS1388054;6;13
009673;04.08.2021;07:25:17;Stop          ;04.12.2018;FEY;;LION;49;14500;7200;192;4;94;97;8400;;4084;4085;1;12973;29.94;31.54;31,6;BCS1388054;6;13
009673;22.08.2021;11:08:00;Normalcharge  ;04.12.2018;FEY;;LION;49;14500;7200;192;4;91;94;8400;3000;4079;4080;1;13003;22.64;30.44;32,1;BCS1388054;3;13
009673;22.08.2021;11:08:34;Stop           ;04.12.2018;FEY;;LION;49;14500;7200;128;4;91;94;8400;3000;4143;4116;1;12713;22.74;31.54;32,4;BCS1388054;3;13
009673;12.10.2021;12:59:04;Normalcharge  ;04.12.2018;FEY;;LION;49;14500;7200;192;4;90;93;8400;3000;4064;4065;1;13005;23.24;27.04;28,5;BCS1388054;7;9
009673;12.10.2021;12:59:37;Stop          ;04.12.2018;FEY;;LION;49;14500;7200;128;4;90;93;8400;3000;4076;4073;1;12924;23.24;28.14;28,6;BCS1388054;7;9
009673;14.10.2021;12:40:13;Normalcharge  ;04.12.2018;FEY;;LION;49;14500;7200;192;4;90;93;8400;3000;4064;4065;1;13014;23.24;26.74;27,9;BCS1388054;5;15
009673;14.10.2021;12:41:50;Stop          ;04.12.2018;FEY;;LION;49;14500;7200;128;4;90;93;8400;3000;4133;4108;1;12645;23.34;29.84;28,5;BCS1388054;5;15
009673;13.03.2022;12:10:09;Normalcharge  ;04.12.2018;FEY;;LION;49;14500;7200;192;4;80;82;8400;3000;3946;3947;1;13019;24.04;23.74;25,6;BCS1388054;3;14
009673;13.03.2022;12:10:50;Stop           ;04.12.2018;FEY;;LION;49;14500;7200;128;4;80;82;8400;3000;3970;3959;1;12768;23.94;25.14;25,7;BCS1388054;3;14
009673;14.03.2022;10:33:46;Normalcharge  ;04.12.2018;FEY;;LION;49;14500;7200;192;4;80;82;8400;3000;3946;3947;1;13000;24.04;26.14;25,1;BCS1388054;6;2
009673;14.03.2022;10:38:06;Stop          ;04.12.2018;FEY;;LION;49;14500;7200;128;4;81;83;8400;3000;4061;4012;1;12678;24.24;32.24;28,1;BCS1388054;6;2