File: reader/Batterieverzeichnis/009743.txt
Serialnumber ; Date ; Time ; Action ; Date of Manufacture ; Manufacturer ; Battery Name ; Device-Chemistry ; Specification-Info ; Design-Capacity [mAh] ; Design-Voltage [mV] ; Battery Status ; Cycle Count ; SOC [%] ; Relativ SOC[%] ; Desired Voltage [mV]; Desired Current [mA]; Cell Voltage 1 [mV] ; Cell Voltage 2 [mV] ; Max_Error [%] ; Busvoltage[mV] ; Battery Temperature [°C] ; Charger Temperature [°C] ; Batterysystem ; Case ; PLace
009743;30.11.2020;09:42:55;Stop          ;04.12.2018;FEY;;LION;49;14500;7200;224;4;97;100;8400;;4154;4153;1;13016;27.44;27.64;31,7;BCS1388054;7;11
009743;07.02.2021;08:47:00;Normalcharge  ;04.12.2018;FEY;;LION;49;14500;7200;192;4;90;93;8400;3000;4064;4063;1;13009;23.44;25.34;29,2;BCS1388054;4;8
009743;07.02.2021;11:52:20;Stop          ;04.12.2018;FEY;;LION;49;14500;7200;224;4;98;100;8400;;4150;4149;1;13009;25.94;26.64;29,7;BCS1388054;4;8
009743;03.03.2021;08:17:35;Normalcharge  ;04.12.2018;FEY;;LION;49;14500;7200;192;5;73;76;8400;3000;3895;3893;1;13010;23.04;23.64;23,6;BCS1388054;5;12
009743;03.03.2021;11:26:36;Stop          ;04.12.2018;FEY;;LION;49;14500;7200;224;5;97;100;8400;;4158;4155;1;13003;28.04;28.44;31,5;BCS1388054;5;12
009743;04.04.2021;11:49:55;Normalcharge  ;04.12.2018;FEY;;LION;49;14500;7200;192;5;52;54;8400;3000;3689;3687;1;13030;24.94;25.34;27,5;BCS1388054;7;4
009743;04.04.2021;11:51:17;Stop          ;04.12.2018;FEY;;LION;49;14500;7200;128;5;52;54;8400;3000;3778;3728;1;12749;24.94;28.74;28,4;BCS1388054;7;4
009743;05.04.2021;09:38:11;Charge to 60% ;04.12.2018;FEY;;LION;49;14500;7200;192;5;52;54;8400;3000;3692;3689;1;13005;24.84;25.64;26,3;BCS1388054;4;6
009743;05.04.2021;10:13:52;Stop          ;04.12.2018;FEY;;LION;49;14500;7200;192;5;57;60;8400;3000;3762;3755;1;13002;27.14;28.04;32,1;BCS1388054;4;6
009743;22.08.2021;11:37:21;Normalcharge  ;04.12.2018;FEY;;LION;49;14500;7200;192;5;51;53;8400;3000;3661;3659;1;13014;22.24;28.64;31,9;BCS1388054;5;18
009743;22.08.2021;11:38:04;Stop          ;04.12.2018;FEY;;LION;49;14500;7200;128;5;51;53;8400;3000;3728;3686;1;12759;22.44;30.24;32,0;BCS1388054;5;18
009743;25.08.2021;08:15:02;Charge to 60% ;04.12.2018;FEY;;LION;49;14500;7200;192;5;51;53;8400;3000;3663;3661;1;13011;30.24;31.74;33,2;BCS1388054;5;18
009743;25.08.2021;13:03:31;Stop          ;04.12.2018;FEY;;LION;49;14500;7200;192;5;58;60;8400;3000;3725;3722;1;13009;32.44;34.24;36,6;BCS1388054;5;18
009743;01.11.2021;10:18:16;Normalcharge  ;04.12.2018;FEY;;LION;49;14500;7200;192;5;54;55;8400;3000;3698;3695;1;13006;25.94;26.44;28,2;BCS1388054;3;15
009743;01.11.2021;10:18:56;Stop           ;04.12.2018;FEY;;LION;49;14500;7200;128;5;54;55;8400;3000;3775;3729;1;12606;25.94;28.24;28,2;BCS1388054;3;15
009743;01.11.2021;10:27:50;Normalcharge  ;04.12.2018;FEY;;LION;49;14500;7200;192;5;54;55;8400;3000;3699;3697;1;13011;25.94;26.64;27,8;BCS1388054;3;15
009743;01.11.2021;10:29:05;Stop           ;04.12.2018;FEY;;LION;49;14500;7200;128;5;54;55;8400;3000;3789;3739;1;12573;25.94;29.94;28,5;BCS1388054;3;15