File: reader/Batterieverzeichnis/009713.txt
Serialnumber ; Date ; Time ; Action ; Date of Manufacture ; Manufacturer ; Battery Name ; Device-Chemistry ; Specification-Info ; Design-Capacity [mAh] ; Design-Voltage [mV] ; Battery Status ; Cycle Count ; SOC [%] ; Relativ SOC[%] ; Desired Voltage [mV]; Desired Current [mA]; Cell Voltage 1 [mV] ; Cell Voltage 2 [mV] ; Max_Error [%] ; Busvoltage[mV] ; Battery Temperature [°C] ; Charger Temperature [°C] ; Batterysystem ; Case ; PLace
009713;02.12.2020;11:43:08;Cycle         ;04.12.2018;FEY;;LION;49;14500;7200;192;2;81;80;8400;3000;3939;3939;1;13003;26.24;28.54;28,4;BCS1388054;1;3
009713;03.12.2020;15:31:47;Stop          ;04.12.2018;FEY;;LION;49;14500;7200;224;3;97;100;8400;;4155;4157;1;13003;27.04;29.04;28,8;BCS1388054;1;3
009713;03.12.2020;17:28:02;Normalcharge  ;04.12.2018;FEY;;LION;49;14500;7200;224;3;97;100;8400;;4154;4156;1;13003;26.94;29.04;28,9;BCS1388054;1;3
009713;03.03.2021;08:17:29;Normalcharge  ;04.12.2018;FEY;;LION;49;14500;7200;192;3;88;90;8400;3000;4043;4044;1;13021;23.44;23.24;23,5;BCS1388054;4;4
009713;03.03.2021;10:32:46;Stop          ;04.12.2018;FEY;;LION;49;14500;7200;224;3;98;100;8400;;4155;4157;1;13014;28.34;28.84;32,0;BCS1388054;4;4
009713;04.04.2021;11:50:33;Normalcharge  ;04.12.2018;FEY;;LION;49;14500;7200;2768;4;;;8400;3000;3111;3089;1;13007;25.34;27.44;27,9;BCS1388054;2;3
009713;04.04.2021;11:51:48;Stop          ;04.12.2018;FEY;;LION;49;14500;7200;2768;4;;;8400;3000;3111;3089;1;12615;25.34;29.14;28,6;BCS1388054;2;3
009713;05.04.2021;09:38:25;Charge to 60% ;04.12.2018;FEY;;LION;49;14500;7200;2768;4;;;8400;3000;3117;3096;1;13013;25.34;26.04;26,6;BCS1388054;6;3
009713;05.04.2021;13:29:53;Stop          ;04.12.2018;FEY;;LION;49;14500;7200;128;4;46;49;8400;3000;3768;3718;1;12933;29.94;33.84;31,9;BCS1388054;6;3
009713;06.04.2021;07:40:17;Charge to 60% ;04.12.2018;FEY;;LION;49;14500;7200;192;4;48;50;8400;3000;3667;3666;1;13016;25.24;25.04;25,1;BCS1388054;6;3
009713;06.04.2021;08:24:55;Stop          ;04.12.2018;FEY;;LION;49;14500;7200;128;4;57;60;8400;3000;3859;3809;1;13011;27.24;31.74;27,8;BCS1388054;6;3
009713;08.04.2021;10:36:43;Normalcharge  ;04.12.2018;FEY;;LION;49;14500;7200;192;4;;;8400;3000;3750;3745;;13032;-273.16;26.94;28,9;BCS1388054;7;8
009713;08.04.2021;10:37:15;Stop          ;04.12.2018;FEY;;LION;49;14500;7200;128;4;58;60;8400;3000;3794;3764;1;12961;25.54;28.04;29,2;BCS1388054;7;8
009713;18.04.2021;08:34:46;Normalcharge  ;04.12.2018;FEY;;LION;49;14500;7200;192;4;57;59;8400;3000;3739;3736;1;13031;26.34;27.64;28,2;BCS1388054;7;8
009713;18.04.2021;08:34:54;Stop          ;04.12.2018;FEY;;LION;49;14500;7200;192;4;57;59;8400;3000;3739;3736;1;13029;26.34;27.84;28,4;BCS1388054;7;8
009713;04.08.2021;07:24:29;Normalcharge  ;04.12.2018;FEY;;LION;49;14500;7200;192;4;53;55;8400;3000;3703;3703;1;13027;30.34;31.04;31,5;BCS1388054;7;8
009713;04.08.2021;07:25:08;Stop          ;04.12.2018;FEY;;LION;49;14500;7200;128;4;53;55;8400;3000;3735;3715;1;12965;30.34;32.44;31,6;BCS1388054;7;8
009713;25.08.2021;08:15:19;Charge to 60% ;04.12.2018;FEY;;LION;49;14500;7200;192;4;53;55;8400;3000;3699;3698;1;12985;30.64;31.64;33,5;BCS1388054;2;13
009713;25.08.2021;10:43:17;Stop          ;04.12.2018;FEY;;LION;49;14500;7200;192;4;57;60;8400;3000;3752;3749;1;12984;33.14;35.34;36,4;BCS1388054;2;13
009713;01.11.2021;09:51:48;Normalcharge  ;04.12.2018;FEY;;LION;49;14500;7200;192;4;55;57;8400;3000;3718;3717;1;13026;26.24;25.54;26,3;BCS1388054;7;11
009713;01.11.2021;09:53:51;Stop          ;04.12.2018;FEY;;LION;49;14500;7200;128;4;55;57;8400;3000;3815;3764;1;12660;26.34;29.14;27,4;BCS1388054;7;11
009713;01.11.2021;10:02:29;Normalcharge  ;04.12.2018;FEY;;LION;49;14500;7200;192;4;55;57;8400;3000;3723;3722;1;13020;26.44;26.94;29,5;BCS1388054;7;11
009713;01.11.2021;10:03:04;Stop          ;04.12.2018;FEY;;LION;49;14500;7200;128;4;55;57;8400;3000;3786;3749;1;12694;26.44;28.04;29,3;BCS1388054;7;11
009713;01.11.2021;10:27:23;Normalcharge  ;04.12.2018;FEY;;LION;49;14500;7200;192;4;55;57;8400;3000;3724;3722;1;13023;26.64;26.44;27,7;BCS1388054;7;11
009713;01.11.2021;10:29:22;Stop          ;04.12.2018;FEY;;LION;49;14500;7200;128;4;56;58;8400;3000;3820;3770;1;12660;26.74;29.74;28,6;BCS1388054;7;11