File: reader/Batterieverzeichnis/009775.txt
Serialnumber ; Date ; Time ; Action ; Date of Manufacture ; Manufacturer ; Battery Name ; Device-Chemistry ; Specification-Info ; Design-Capacity [mAh] ; Design-Voltage [mV] ; Battery Status ; Cycle Count ; SOC [%] ; Relativ SOC[%] ; Desired Voltage [mV]; Desired Current [mA]; Cell Voltage 1 [mV] ; Cell Voltage 2 [mV] ; Max_Error [%] ; Busvoltage[mV] ; Battery Temperature [°C] ; Charger Temperature [°C] ; Batterysystem ; Case ; PLace
009775;07.12.2020;04:14:17;Cycle         ;04.12.2018;FEY;;LION;49;14500;7200;224;2;98;100;8400;;4142;4144;1;12992;25.44;27.84;30,3;BCS1388054;1;1
009775;08.12.2020;16:19:38;Stop          ;04.12.2018;FEY;;LION;49;14500;7200;224;4;97;100;8400;;4151;4152;1;12991;27.24;29.14;31,9;BCS1388054;1;1
009775;03.03.2021;08:17:08;Normalcharge  ;04.12.2018;FEY;;LION;49;14500;7200;192;4;95;98;8400;;4116;4116;1;13001;22.84;24.04;23,5;BCS1388054;1;8
009775;04.03.2021;07:53:51;Stop          ;04.12.2018;FEY;;LION;49;14500;7200;192;4;95;98;8400;;4116;4116;1;12996;25.94;28.64;31,6;BCS1388054;1;8
009775;04.04.2021;11:50:33;Normalcharge  ;04.12.2018;FEY;;LION;49;14500;7200;192;4;50;51;8400;3000;3661;3661;1;12989;24.74;26.94;27,9;BCS1388054;2;7
009775;04.04.2021;11:51:48;Stop          ;04.12.2018;FEY;;LION;49;14500;7200;128;4;50;51;8400;3000;3749;3700;1;12601;24.84;29.74;28,6;BCS1388054;2;7
009775;05.04.2021;09:38:17;Charge to 60% ;04.12.2018;FEY;;LION;49;14500;7200;192;4;50;51;8400;3000;3662;3663;1;12999;24.84;26.54;26,4;BCS1388054;5;7
009775;05.04.2021;10:34:50;Charge to 60% ;04.12.2018;FEY;;LION;49;14500;7200;192;4;58;60;8400;3000;3740;3744;1;12914;27.94;30.44;32,4;BCS1388054;5;7
009775;05.04.2021;13:16:09;Stop          ;04.12.2018;FEY;;LION;49;14500;7200;192;4;58;60;8400;3000;3738;3741;1;12995;27.64;30.24;32,2;BCS1388054;5;7
009775;22.08.2021;11:37:30;Normalcharge  ;04.12.2018;FEY;;LION;49;14500;7200;192;4;53;55;8400;3000;3692;3693;1;12999;21.14;28.64;31,9;BCS1388054;3;10
009775;22.08.2021;11:38:19;Stop           ;04.12.2018;FEY;;LION;49;14500;7200;128;4;53;55;8400;3000;3779;3733;1;12557;21.24;30.84;32,1;BCS1388054;3;10
009775;25.08.2021;08:15:15;Ladung auf 60% ;04.12.2018;FEY;;LION;49;14500;7200;192;4;53;55;8400;3000;3695;3696;1;12995;30.24;31.84;33,4;BCS1388054;3;10
009775;25.08.2021;08:40:44;Stop           ;04.12.2018;FEY;;LION;49;14500;7200;192;4;58;60;8400;3000;3749;3753;1;12997;32.04;34.54;36,1;BCS1388054;3;10
009775;01.11.2021;09:52:00;Normalcharge  ;04.12.2018;FEY;;LION;49;14500;7200;192;4;55;57;8400;3000;3714;3715;1;13007;25.54;25.14;26,3;BCS1388054;5;1
009775;01.11.2021;09:53:40;Stop          ;04.12.2018;FEY;;LION;49;14500;7200;128;4;55;57;8400;3000;3804;3760;1;12613;25.54;29.14;27,3;BCS1388054;5;1
009775;01.11.2021;10:02:19;Normalcharge  ;04.12.2018;FEY;;LION;49;14500;7200;192;4;55;57;8400;3000;3718;3720;1;13002;25.74;27.64;29,5;BCS1388054;5;1
009775;01.11.2021;10:03:11;Stop          ;04.12.2018;FEY;;LION;49;14500;7200;128;4;55;57;8400;3000;3802;3758;1;12610;25.74;29.44;29,3;BCS1388054;5;1
009775;01.11.2021;10:27:35;Normalcharge  ;04.12.2018;FEY;;LION;49;14500;7200;192;4;55;57;8400;3000;3720;3721;1;13004;26.04;25.94;27,8;BCS1388054;5;1
009775;01.11.2021;10:29:14;Stop          ;04.12.2018;FEY;;LION;49;14500;7200;128;4;56;58;8400;3000;3811;3764;1;12609;26.04;29.94;28,6;BCS1388054;5;1
009775;01.11.2021;10:32:33;Charge to 60% ;04.12.2018;FEY;;LION;49;14500;7200;192;4;56;58;8400;3000;3724;3725;1;13002;26.14;27.64;29,9;BCS1388054;5;1
009775;01.11.2021;11:11:47;Stop          ;04.12.2018;FEY;;LION;49;14500;7200;192;4;58;60;8400;3000;3750;3754;1;13002;27.44;29.34;32,5;BCS1388054;5;1
009775;07.02.2022;08:50:57;Normalcharge  ;04.12.2018;FEY;;LION;49;14500;7200;192;4;55;57;8400;3000;3711;3712;1;13009;21.94;23.14;25,1;BCS1388054;4;7
009775;07.02.2022;13:19:09;Stop          ;04.12.2018;FEY;;LION;49;14500;7200;224;4;97;100;8400;;4160;4159;1;13004;27.24;28.64;29,7;BCS1388054;4;7
009775;14.03.2022;12:14:36;Normalcharge  ;04.12.2018;FEY;;LION;49;14500;7200;224;4;96;99;8400;;4131;4129;1;13017;24.24;24.84;27,7;BCS1388054;3;14
009775;14.03.2022;12:18:51;Stop           ;04.12.2018;FEY;;LION;49;14500;7200;224;4;96;99;8400;;4131;4129;1;12980;24.34;25.74;29,5;BCS1388054;3;14
009775;29.03.2022;08:21:01;Normalcharge  ;04.12.2018;FEY;;LION;49;14500;7200;192;5;70;72;8400;3000;3877;3876;1;13016;24.54;25.14;25,8;BCS1388054;3;3
009775;29.03.2022;08:21:40;Stop           ;04.12.2018;FEY;;LION;49;14500;7200;128;5;70;72;8400;3000;3929;3900;1;12684;24.54;26.64;26,0;BCS1388054;3;3
009775;29.03.2022;08:22:08;Normalcharge  ;04.12.2018;FEY;;LION;49;14500;7200;128;5;70;72;8400;3000;3878;3880;1;13015;24.54;26.54;26,3;BCS1388054;3;3
009775;29.03.2022;08:22:36;Stop           ;04.12.2018;FEY;;LION;49;14500;7200;128;5;70;72;8400;3000;3918;3894;1;12755;24.64;27.24;26,4;BCS1388054;3;3