File: reader/Batterieverzeichnis/009796.txt
Serialnumber ; Date ; Time ; Action ; Date of Manufacture ; Manufacturer ; Battery Name ; Device-Chemistry ; Specification-Info ; Design-Capacity [mAh] ; Design-Voltage [mV] ; Battery Status ; Cycle Count ; SOC [%] ; Relativ SOC[%] ; Desired Voltage [mV]; Desired Current [mA]; Cell Voltage 1 [mV] ; Cell Voltage 2 [mV] ; Max_Error [%] ; Busvoltage[mV] ; Battery Temperature [°C] ; Charger Temperature [°C] ; Batterysystem ; Case ; PLace
009796;07.12.2020;04:14:21;Cycle         ;04.12.2018;FEY;;LION;49;14500;7200;16576;2;98;99;;;4151;4152;1;12985;25.54;28.24;30,3;BCS1388054;2;7
009796;08.12.2020;16:19:44;Stop          ;04.12.2018;FEY;;LION;49;14500;7200;16576;2;98;99;;;4148;4149;1;12985;27.74;29.94;31,9;BCS1388054;2;7
009796;07.02.2021;08:46:49;Normalcharge  ;04.12.2018;FEY;;LION;49;14500;7200;16576;2;95;96;;;4107;4107;1;12992;23.34;25.44;29,2;BCS1388054;2;13
009796;07.02.2021;11:52:12;Stop          ;04.12.2018;FEY;;LION;49;14500;7200;16576;2;95;96;;;4107;4107;1;12993;25.64;27.14;29,7;BCS1388054;2;13
009796;03.03.2021;08:17:17;Normalcharge  ;04.12.2018;FEY;;LION;49;14500;7200;16576;2;93;94;;;4088;4089;1;13014;23.04;23.14;23,5;BCS1388054;2;16
009796;04.03.2021;07:53:46;Stop          ;04.12.2018;FEY;;LION;49;14500;7200;16576;2;93;94;;;4088;4088;1;13005;26.24;27.54;31,6;BCS1388054;2;16
009796;04.04.2021;11:50:02;Normalcharge  ;04.12.2018;FEY;;LION;49;14500;7200;192;3;49;50;8400;3000;3657;3655;1;13000;24.84;27.34;27,7;BCS1388054;6;2
009796;04.04.2021;11:51:24;Stop          ;04.12.2018;FEY;;LION;49;14500;7200;128;3;49;50;8400;3000;3743;3694;1;12682;24.84;30.74;28,5;BCS1388054;6;2
009796;05.04.2021;09:38:17;Charge to 60% ;04.12.2018;FEY;;LION;49;14500;7200;192;3;49;50;8400;3000;3658;3657;1;13002;24.84;25.24;26,4;BCS1388054;5;10
009796;05.04.2021;10:34:50;Charge to 60% ;04.12.2018;FEY;;LION;49;14500;7200;192;3;59;60;8400;3000;3755;3750;1;12901;28.04;28.64;32,4;BCS1388054;5;10
009796;05.04.2021;13:16:09;Stop          ;04.12.2018;FEY;;LION;49;14500;7200;192;3;59;60;8400;3000;3750;3746;1;12998;27.64;28.44;32,2;BCS1388054;5;10
009796;22.08.2021;11:07:50;Normalcharge  ;04.12.2018;FEY;;LION;49;14500;7200;192;3;40;40;8400;3000;3595;3593;1;12984;22.24;30.44;32,0;BCS1388054;1;9
009796;22.08.2021;11:08:23;Stop          ;04.12.2018;FEY;;LION;49;14500;7200;128;3;40;41;8400;3000;3656;3619;1;12598;22.34;31.54;32,4;BCS1388054;1;9
009796;25.08.2021;08:14:57;Charge to 60% ;04.12.2018;FEY;;LION;49;14500;7200;192;3;39;40;8400;3000;3596;3595;1;12994;30.14;32.14;33,2;BCS1388054;6;9
009796;25.08.2021;09:50:39;Stop          ;04.12.2018;FEY;;LION;49;14500;7200;128;3;59;60;8400;3000;3838;3785;1;12994;35.34;39.14;36,4;BCS1388054;6;9
009796;01.11.2021;09:52:06;Normalcharge  ;04.12.2018;FEY;;LION;49;14500;7200;2768;4;;;8400;3000;3117;3080;1;13004;24.04;24.84;26,3;BCS1388054;4;17
009796;01.11.2021;09:53:35;Stop          ;04.12.2018;FEY;;LION;49;14500;7200;144;4;;;8400;3000;3291;3213;1;12606;24.14;28.74;27,1;BCS1388054;4;17
009796;01.11.2021;10:02:14;Normalcharge  ;04.12.2018;FEY;;LION;49;14500;7200;720;4;;;8400;3000;3146;3114;1;12998;24.44;27.04;29,5;BCS1388054;4;17
009796;01.11.2021;10:03:16;Stop          ;04.12.2018;FEY;;LION;49;14500;7200;144;4;;;8400;3000;3299;3223;1;12563;24.44;29.54;29,3;BCS1388054;4;17
009796;01.11.2021;10:18:21;Normalcharge  ;04.12.2018;FEY;;LION;49;14500;7200;720;4;;;8400;3000;3160;3129;1;13000;24.94;26.44;28,4;BCS1388054;4;17
009796;01.11.2021;10:19:03;Stop          ;04.12.2018;FEY;;LION;49;14500;7200;144;4;;;8400;3000;3298;3224;1;12552;25.04;28.34;28,2;BCS1388054;4;17
009796;01.11.2021;10:28:22;Normalcharge  ;04.12.2018;FEY;;LION;49;14500;7200;720;4;;;8400;3000;3166;3136;1;13000;25.24;26.74;27,9;BCS1388054;4;17
009796;01.11.2021;10:29:09;Stop          ;04.12.2018;FEY;;LION;49;14500;7200;144;4;;;8400;3000;3304;3231;1;12548;25.24;28.84;28,5;BCS1388054;4;17
009796;01.11.2021;10:32:29;Charge to 60% ;04.12.2018;FEY;;LION;49;14500;7200;720;4;;;8400;3000;3175;3146;1;13000;25.34;27.14;29,7;BCS1388054;4;17
009796;01.11.2021;15:19:33;Stop          ;04.12.2018;FEY;;LION;49;14500;7200;192;4;57;60;8400;3000;3809;3810;1;12999;30.04;30.34;32,7;BCS1388054;4;17
009796;07.02.2022;08:50:52;Normalcharge  ;04.12.2018;FEY;;LION;49;14500;7200;192;4;55;58;8400;3000;3741;3740;1;13013;22.14;22.34;25,0;BCS1388054;5;11
009796;07.02.2022;13:22:36;Stop          ;04.12.2018;FEY;;LION;49;14500;7200;224;4;96;100;8400;;4158;4162;1;13005;26.44;26.04;28,5;BCS1388054;5;11
009796;14.03.2022;12:14:21;Normalcharge  ;04.12.2018;FEY;;LION;49;14500;7200;224;4;96;99;8400;;4130;4132;1;12995;23.74;25.34;27,5;BCS1388054;6;10
009796;14.03.2022;12:18:18;Stop          ;04.12.2018;FEY;;LION;49;14500;7200;224;4;96;99;8400;;4130;4132;1;12826;23.84;26.34;29,3;BCS1388054;6;10
009796;29.03.2022;08:20:53;Normalcharge  ;04.12.2018;FEY;;LION;49;14500;7200;192;4;86;88;8400;3000;4012;4014;1;13012;24.64;24.84;25,7;BCS1388054;5;9
009796;29.03.2022;08:21:28;Stop          ;04.12.2018;FEY;;LION;49;14500;7200;128;4;86;88;8400;3000;4031;4025;1;12832;24.64;26.04;25,8;BCS1388054;5;9
009796;29.03.2022;08:22:15;Normalcharge  ;04.12.2018;FEY;;LION;49;14500;7200;128;4;86;88;8400;3000;4013;4017;1;13012;24.64;25.84;26,3;BCS1388054;5;9
009796;29.03.2022;08:22:21;Stop          ;04.12.2018;FEY;;LION;49;14500;7200;128;4;86;88;8400;3000;4013;4016;1;13001;24.64;25.84;26,3;BCS1388054;5;9