File: reader/Batterieverzeichnis/009790.txt
Serialnumber ; Date ; Time ; Action ; Date of Manufacture ; Manufacturer ; Battery Name ; Device-Chemistry ; Specification-Info ; Design-Capacity [mAh] ; Design-Voltage [mV] ; Battery Status ; Cycle Count ; SOC [%] ; Relativ SOC[%] ; Desired Voltage [mV]; Desired Current [mA]; Cell Voltage 1 [mV] ; Cell Voltage 2 [mV] ; Max_Error [%] ; Busvoltage[mV] ; Battery Temperature [°C] ; Charger Temperature [°C] ; Batterysystem ; Case ; PLace
009790;07.12.2020;04:14:17;Cycle         ;03.12.2018;FEY;;LION;49;14500;7200;16576;2;96;100;;;4140;4140;1;13003;25.34;27.54;30,3;BCS1388054;1;7
009790;08.12.2020;16:19:38;Stop          ;03.12.2018;FEY;;LION;49;14500;7200;16576;2;96;100;;;4137;4138;1;13004;27.24;28.84;31,9;BCS1388054;1;7
009790;07.02.2021;08:46:42;Normalcharge  ;03.12.2018;FEY;;LION;49;14500;7200;16576;2;94;98;;;4115;4115;1;12992;23.24;25.64;29,2;BCS1388054;1;4
009790;07.02.2021;11:52:07;Stop          ;03.12.2018;FEY;;LION;49;14500;7200;16576;2;94;98;;;4115;4115;1;12991;25.34;26.44;29,7;BCS1388054;1;4
009790;03.03.2021;08:17:21;Normalcharge  ;03.12.2018;FEY;;LION;49;14500;7200;16576;3;89;93;;;4070;4070;1;13007;22.84;23.44;23,5;BCS1388054;3;12
009790;04.03.2021;07:53:40;Stop           ;03.12.2018;FEY;;LION;49;14500;7200;16576;3;89;93;;;4069;4069;1;13002;26.04;27.04;31,5;BCS1388054;3;12
009790;04.04.2021;11:50:28;Normalcharge  ;03.12.2018;FEY;;LION;49;14500;7200;192;3;44;46;8400;3000;3633;3633;1;13002;24.64;25.94;27,9;BCS1388054;3;12
009790;04.04.2021;11:51:43;Stop           ;03.12.2018;FEY;;LION;49;14500;7200;128;3;44;47;8400;3000;3719;3671;1;12776;24.74;27.74;28,6;BCS1388054;3;12
009790;05.04.2021;09:38:17;Charge to 60% ;03.12.2018;FEY;;LION;49;14500;7200;192;3;44;47;8400;3000;3634;3634;1;13015;24.74;26.74;26,4;BCS1388054;5;15
009790;05.04.2021;10:34:50;Charge to 60% ;03.12.2018;FEY;;LION;49;14500;7200;128;3;56;58;8400;3000;3826;3781;1;12912;28.84;36.64;32,4;BCS1388054;5;15
009790;05.04.2021;13:16:09;Stop          ;03.12.2018;FEY;;LION;49;14500;7200;192;3;57;60;8400;3000;3743;3747;1;13010;27.64;30.54;32,2;BCS1388054;5;15
009790;22.08.2021;11:37:30;Normalcharge  ;03.12.2018;FEY;;LION;49;14500;7200;192;3;52;55;8400;3000;3692;3692;1;13001;21.24;28.04;31,9;BCS1388054;3;4
009790;22.08.2021;11:38:19;Stop           ;03.12.2018;FEY;;LION;49;14500;7200;128;3;52;55;8400;3000;3778;3731;1;12573;21.34;30.24;32,1;BCS1388054;3;4