File: reader/Batterieverzeichnis/009756.txt
Serialnumber ; Date ; Time ; Action ; Date of Manufacture ; Manufacturer ; Battery Name ; Device-Chemistry ; Specification-Info ; Design-Capacity [mAh] ; Design-Voltage [mV] ; Battery Status ; Cycle Count ; SOC [%] ; Relativ SOC[%] ; Desired Voltage [mV]; Desired Current [mA]; Cell Voltage 1 [mV] ; Cell Voltage 2 [mV] ; Max_Error [%] ; Busvoltage[mV] ; Battery Temperature [°C] ; Charger Temperature [°C] ; Batterysystem ; Case ; PLace
009756;07.12.2020;04:14:32;Cycle         ;04.12.2018;FEY;;LION;49;14500;7200;192;4;98;98;8400;;4145;4143;1;13002;25.84;28.44;30,3;BCS1388054;5;3
009756;08.12.2020;16:20:01;Stop          ;04.12.2018;FEY;;LION;49;14500;7200;192;4;98;98;8400;;4143;4141;1;13000;28.04;30.04;31,7;BCS1388054;5;3
009756;07.02.2021;08:46:54;Normalcharge  ;04.12.2018;FEY;;LION;49;14500;7200;192;4;95;95;8400;3000;4100;4099;1;13001;23.74;24.54;29,2;BCS1388054;3;16
009756;07.02.2021;11:52:16;Stop           ;04.12.2018;FEY;;LION;49;14500;7200;224;4;100;100;8400;;4148;4146;1;13001;26.04;26.14;29,7;BCS1388054;3;16
009756;03.03.2021;08:17:35;Normalcharge  ;04.12.2018;FEY;;LION;49;14500;7200;192;4;76;79;8400;3000;3923;3923;1;13017;23.34;24.44;23,6;BCS1388054;5;5
009756;03.03.2021;11:26:36;Stop          ;04.12.2018;FEY;;LION;49;14500;7200;224;4;98;100;8400;;4156;4155;1;13012;28.34;29.74;31,5;BCS1388054;5;5
009756;04.04.2021;11:50:39;Normalcharge  ;04.12.2018;FEY;;LION;49;14500;7200;192;4;54;55;8400;3000;3699;3700;1;12999;25.14;26.04;28,1;BCS1388054;1;18
009756;04.04.2021;11:51:54;Stop          ;04.12.2018;FEY;;LION;49;14500;7200;128;4;54;55;8400;3000;3790;3743;1;12550;25.14;29.24;28,8;BCS1388054;1;18
009756;05.04.2021;09:37:46;Charge to 60% ;04.12.2018;FEY;;LION;49;14500;7200;192;4;54;55;8400;3000;3702;3703;1;13006;25.34;26.64;26,1;BCS1388054;2;2
009756;05.04.2021;10:03:48;Stop          ;04.12.2018;FEY;;LION;49;14500;7200;192;4;58;60;8400;3000;3761;3765;1;13002;27.04;30.24;31,4;BCS1388054;2;2
009756;22.08.2021;11:07:50;Normalcharge  ;04.12.2018;FEY;;LION;49;14500;7200;192;5;43;44;8400;3000;3611;3612;1;12987;22.44;30.24;32,0;BCS1388054;1;4
009756;22.08.2021;11:08:23;Stop          ;04.12.2018;FEY;;LION;49;14500;7200;128;5;43;44;8400;3000;3670;3637;1;12626;22.54;31.24;32,4;BCS1388054;1;4
009756;25.08.2021;08:14:57;Charge to 60% ;04.12.2018;FEY;;LION;49;14500;7200;192;5;42;43;8400;3000;3613;3613;1;12975;30.54;30.84;33,2;BCS1388054;6;16
009756;25.08.2021;09:50:39;Stop          ;04.12.2018;FEY;;LION;49;14500;7200;192;5;58;60;8400;3000;3736;3737;1;12975;34.54;33.74;36,4;BCS1388054;6;16
009756;01.11.2021;09:52:11;Normalcharge  ;04.12.2018;FEY;;LION;49;14500;7200;192;5;50;52;8400;3000;3664;3665;1;13016;24.54;24.54;26,4;BCS1388054;3;14
009756;01.11.2021;09:53:27;Stop           ;04.12.2018;FEY;;LION;49;14500;7200;128;5;51;52;8400;3000;3755;3707;1;12610;24.54;27.84;27,1;BCS1388054;3;14
009756;01.11.2021;10:02:09;Normalcharge  ;04.12.2018;FEY;;LION;49;14500;7200;192;5;51;52;8400;3000;3666;3668;1;13011;24.84;26.94;29,5;BCS1388054;3;14
009756;01.11.2021;10:03:20;Stop           ;04.12.2018;FEY;;LION;49;14500;7200;128;5;51;52;8400;3000;3757;3707;1;12610;24.94;29.64;29,5;BCS1388054;3;14
009756;01.11.2021;10:18:16;Normalcharge  ;04.12.2018;FEY;;LION;49;14500;7200;192;5;51;52;8400;3000;3668;3669;1;13013;25.44;26.14;28,2;BCS1388054;3;14
009756;01.11.2021;10:18:56;Stop           ;04.12.2018;FEY;;LION;49;14500;7200;128;5;51;52;8400;3000;3747;3703;1;12622;25.44;27.84;28,2;BCS1388054;3;14
009756;01.11.2021;10:27:50;Normalcharge  ;04.12.2018;FEY;;LION;49;14500;7200;192;5;51;52;8400;3000;3669;3670;1;13013;25.64;26.44;27,8;BCS1388054;3;14
009756;01.11.2021;10:29:05;Stop           ;04.12.2018;FEY;;LION;49;14500;7200;128;5;51;52;8400;3000;3758;3711;1;12579;25.64;29.64;28,5;BCS1388054;3;14