File: reader/Batterieverzeichnis/009751.txt
Serialnumber ; Date ; Time ; Action ; Date of Manufacture ; Manufacturer ; Battery Name ; Device-Chemistry ; Specification-Info ; Design-Capacity [mAh] ; Design-Voltage [mV] ; Battery Status ; Cycle Count ; SOC [%] ; Relativ SOC[%] ; Desired Voltage [mV]; Desired Current [mA]; Cell Voltage 1 [mV] ; Cell Voltage 2 [mV] ; Max_Error [%] ; Busvoltage[mV] ; Battery Temperature [°C] ; Charger Temperature [°C] ; Batterysystem ; Case ; PLace
009751;07.12.2020;04:14:36;Cycle         ;04.12.2018;FEY;;LION;49;14500;7200;192;2;96;98;8400;;4145;4145;1;13007;25.74;28.54;30,3;BCS1388054;6;3
009751;08.12.2020;16:20:13;Stop          ;04.12.2018;FEY;;LION;49;14500;7200;192;2;96;98;8400;;4142;4142;1;13007;27.84;30.04;31,9;BCS1388054;6;3
009751;07.02.2021;08:47:07;Normalcharge  ;04.12.2018;FEY;;LION;49;14500;7200;192;3;74;75;8400;3000;3901;3901;1;13002;23.54;24.14;29,2;BCS1388054;5;6
009751;07.02.2021;11:50:11;Stop          ;04.12.2018;FEY;;LION;49;14500;7200;224;3;99;100;8400;;4157;4156;1;13002;25.64;25.34;30,0;BCS1388054;5;6
009751;03.03.2021;08:17:21;Normalcharge  ;04.12.2018;FEY;;LION;49;14500;7200;192;3;89;91;8400;3000;4066;4065;1;13009;23.24;22.94;23,5;BCS1388054;3;18
009751;04.03.2021;07:53:40;Stop           ;04.12.2018;FEY;;LION;49;14500;7200;224;3;99;100;8400;;4147;4146;1;13002;26.44;27.34;31,5;BCS1388054;3;18
009751;04.04.2021;11:50:33;Normalcharge  ;04.12.2018;FEY;;LION;49;14500;7200;192;3;55;57;8400;3000;3721;3721;1;13012;25.04;26.44;27,9;BCS1388054;2;9
009751;04.04.2021;11:51:48;Stop          ;04.12.2018;FEY;;LION;49;14500;7200;128;3;55;57;8400;3000;3813;3765;1;12620;25.04;29.04;28,6;BCS1388054;2;9
009751;05.04.2021;09:37:37;Charge to 60% ;04.12.2018;FEY;;LION;49;14500;7200;192;3;55;58;8400;3000;3725;3724;1;13003;25.14;25.14;26,0;BCS1388054;1;10
009751;05.04.2021;10:01:53;Stop          ;04.12.2018;FEY;;LION;49;14500;7200;192;3;57;60;8400;3000;3763;3761;1;12998;26.34;27.54;31,2;BCS1388054;1;10
009751;22.08.2021;11:08:18;Normalcharge  ;04.12.2018;FEY;;LION;49;14500;7200;192;3;53;55;8400;3000;3702;3702;1;13016;29.74;31.04;32,2;BCS1388054;7;12
009751;22.08.2021;11:08:51;Stop          ;04.12.2018;FEY;;LION;49;14500;7200;128;3;53;55;8400;3000;3733;3714;1;12854;29.74;31.84;32,6;BCS1388054;7;12
009751;25.08.2021;08:15:19;Charge to 60% ;04.12.2018;FEY;;LION;49;14500;7200;192;3;53;55;8400;3000;3702;3702;1;12977;30.34;32.64;33,5;BCS1388054;2;7
009751;25.08.2021;10:43:16;Stop          ;04.12.2018;FEY;;LION;49;14500;7200;192;3;57;60;8400;3000;3755;3754;1;12977;32.84;35.24;36,4;BCS1388054;2;7
009751;01.11.2021;09:52:00;Normalcharge  ;04.12.2018;FEY;;LION;49;14500;7200;192;3;55;57;8400;3000;3720;3720;1;13005;25.84;26.24;26,3;BCS1388054;5;3
009751;01.11.2021;09:53:40;Stop          ;04.12.2018;FEY;;LION;49;14500;7200;128;3;55;57;8400;3000;3816;3766;1;12600;25.84;30.44;27,3;BCS1388054;5;3
009751;01.11.2021;10:02:19;Normalcharge  ;04.12.2018;FEY;;LION;49;14500;7200;192;3;55;58;8400;3000;3725;3725;1;13001;26.04;28.74;29,5;BCS1388054;5;3
009751;01.11.2021;10:03:11;Stop          ;04.12.2018;FEY;;LION;49;14500;7200;128;3;55;58;8400;3000;3814;3766;1;12595;26.04;30.64;29,3;BCS1388054;5;3
009751;01.11.2021;10:27:35;Normalcharge  ;04.12.2018;FEY;;LION;49;14500;7200;192;3;55;58;8400;3000;3727;3726;1;13002;26.24;27.04;27,8;BCS1388054;5;3
009751;01.11.2021;10:29:14;Stop          ;04.12.2018;FEY;;LION;49;14500;7200;128;3;55;58;8400;3000;3822;3774;1;12593;26.34;31.04;28,6;BCS1388054;5;3
009751;01.11.2021;10:32:33;Charge to 60% ;04.12.2018;FEY;;LION;49;14500;7200;192;3;56;58;8400;3000;3732;3732;1;13000;26.44;28.84;29,9;BCS1388054;5;3
009751;01.11.2021;11:11:47;Stop          ;04.12.2018;FEY;;LION;49;14500;7200;192;3;57;60;8400;3000;3756;3755;1;13001;27.64;30.44;32,5;BCS1388054;5;3
009751;07.02.2022;08:50:57;Normalcharge  ;04.12.2018;FEY;;LION;49;14500;7200;192;3;55;57;8400;3000;3713;3713;1;13007;22.24;22.34;25,1;BCS1388054;4;6
009751;07.02.2022;13:19:09;Stop          ;04.12.2018;FEY;;LION;49;14500;7200;224;3;96;100;8400;;4161;4159;1;13002;26.74;26.44;29,7;BCS1388054;4;6
009751;14.03.2022;10:34:44;Normalcharge  ;04.12.2018;FEY;;LION;49;14500;7200;224;3;95;99;8400;;4129;4128;1;12992;24.44;25.44;26,0;BCS1388054;1;1
009751;14.03.2022;10:38:55;Stop          ;04.12.2018;FEY;;LION;49;14500;7200;224;3;95;99;8400;;4129;4128;1;12963;24.44;26.34;28,2;BCS1388054;1;1