File: reader/Batterieverzeichnis/009738.txt
Serialnumber ; Date ; Time ; Action ; Date of Manufacture ; Manufacturer ; Battery Name ; Device-Chemistry ; Specification-Info ; Design-Capacity [mAh] ; Design-Voltage [mV] ; Battery Status ; Cycle Count ; SOC [%] ; Relativ SOC[%] ; Desired Voltage [mV]; Desired Current [mA]; Cell Voltage 1 [mV] ; Cell Voltage 2 [mV] ; Max_Error [%] ; Busvoltage[mV] ; Battery Temperature [°C] ; Charger Temperature [°C] ; Batterysystem ; Case ; PLace
009738;30.11.2020;09:42:55;Stop          ;04.12.2018;FEY;;LION;49;14500;7200;224;4;97;100;8400;;4153;4154;1;13022;27.14;28.24;31,7;BCS1388054;7;18
009738;07.02.2021;08:46:43;Normalcharge  ;04.12.2018;FEY;;LION;49;14500;7200;192;4;94;97;8400;;4102;4102;1;13001;23.44;25.54;29,2;BCS1388054;1;17
009738;07.02.2021;11:52:07;Stop          ;04.12.2018;FEY;;LION;49;14500;7200;192;4;94;97;8400;;4102;4102;1;13002;25.34;26.74;29,7;BCS1388054;1;17
009738;03.03.2021;08:17:40;Normalcharge  ;04.12.2018;FEY;;LION;49;14500;7200;192;4;65;67;8400;3000;3824;3824;1;13018;22.94;24.14;23,6;BCS1388054;6;17
009738;03.03.2021;11:56:52;Stop          ;04.12.2018;FEY;;LION;49;14500;7200;224;4;97;100;8400;;4164;4166;1;13012;28.24;30.84;31,7;BCS1388054;6;17
009738;04.04.2021;11:50:02;Normalcharge  ;04.12.2018;FEY;;LION;49;14500;7200;192;5;52;54;8400;3000;3685;3684;1;13001;24.74;25.64;27,7;BCS1388054;6;1
009738;04.04.2021;11:51:24;Stop          ;04.12.2018;FEY;;LION;49;14500;7200;128;5;52;54;8400;3000;3770;3724;1;12683;24.74;28.94;28,5;BCS1388054;6;1
009738;05.04.2021;09:38:11;Charge to 60% ;04.12.2018;FEY;;LION;49;14500;7200;192;5;52;54;8400;3000;3687;3686;1;12998;24.74;25.94;26,3;BCS1388054;4;5
009738;05.04.2021;10:13:52;Stop          ;04.12.2018;FEY;;LION;49;14500;7200;192;5;58;60;8400;3000;3753;3752;1;12993;27.04;28.34;32,1;BCS1388054;4;5
009738;22.08.2021;11:07:51;Normalcharge  ;04.12.2018;FEY;;LION;49;14500;7200;192;5;40;41;8400;3000;3599;3599;1;12995;22.34;29.94;32,0;BCS1388054;1;17
009738;22.08.2021;11:08:24;Stop          ;04.12.2018;FEY;;LION;49;14500;7200;128;5;40;41;8400;3000;3645;3620;1;12574;22.44;31.04;32,4;BCS1388054;1;17
009738;25.08.2021;08:14:57;Charge to 60% ;04.12.2018;FEY;;LION;49;14500;7200;192;5;40;41;8400;3000;3601;3600;1;12991;30.04;30.74;33,2;BCS1388054;6;5
009738;25.08.2021;09:50:39;Stop          ;04.12.2018;FEY;;LION;49;14500;7200;192;5;58;60;8400;3000;3737;3738;1;12990;34.24;32.94;36,4;BCS1388054;6;5
009738;01.11.2021;09:52:11;Normalcharge  ;04.12.2018;FEY;;LION;49;14500;7200;2768;6;;;8400;3000;3030;3036;1;13007;24.24;25.84;26,4;BCS1388054;3;13
009738;01.11.2021;09:53:27;Stop           ;04.12.2018;FEY;;LION;49;14500;7200;2768;6;;;8400;3000;3030;3035;1;12617;24.24;27.94;27,1;BCS1388054;3;13
009738;01.11.2021;10:02:09;Normalcharge  ;04.12.2018;FEY;;LION;49;14500;7200;2768;6;;;8400;3000;3029;3035;1;13000;24.64;30.34;29,5;BCS1388054;3;13
009738;01.11.2021;10:03:20;Stop           ;04.12.2018;FEY;;LION;49;14500;7200;2768;6;;;8400;3000;3030;3035;1;12611;24.64;30.44;29,5;BCS1388054;3;13
009738;01.11.2021;10:18:16;Normalcharge  ;04.12.2018;FEY;;LION;49;14500;7200;2768;6;;;8400;3000;3030;3035;1;13001;25.04;27.44;28,2;BCS1388054;3;13
009738;01.11.2021;10:18:56;Stop           ;04.12.2018;FEY;;LION;49;14500;7200;2768;6;;;8400;3000;3030;3035;1;12625;25.04;28.84;28,2;BCS1388054;3;13
009738;01.11.2021;10:27:50;Normalcharge  ;04.12.2018;FEY;;LION;49;14500;7200;2768;6;;;8400;3000;3030;3035;1;13002;25.24;27.64;27,8;BCS1388054;3;13
009738;01.11.2021;10:29:05;Stop           ;04.12.2018;FEY;;LION;49;14500;7200;144;6;;;8400;3000;3084;3071;1;12578;25.34;29.64;28,5;BCS1388054;3;13
009738;01.11.2021;10:32:24;Ladung auf 60% ;04.12.2018;FEY;;LION;49;14500;7200;720;6;;;8400;3000;3034;3039;1;13001;25.44;28.34;29,7;BCS1388054;3;13
009738;01.11.2021;15:19:46;Stop           ;04.12.2018;FEY;;LION;49;14500;7200;192;6;56;60;8400;3000;3796;3795;1;13001;30.24;31.94;32,7;BCS1388054;3;13
009738;09.02.2022;08:16:56;Normalcharge  ;04.12.2018;FEY;;LION;49;14500;7200;192;6;55;58;8400;3000;3728;3728;1;13010;22.24;23.04;23,1;BCS1388054;2;8
009738;09.02.2022;12:43:52;Stop          ;04.12.2018;FEY;;LION;49;14500;7200;224;6;96;100;8400;;4160;4162;1;13003;26.34;27.44;29,9;BCS1388054;2;8
009738;14.03.2022;10:34:06;Normalcharge  ;04.12.2018;FEY;;LION;49;14500;7200;224;6;94;99;8400;;4130;4132;1;13005;23.94;24.54;25,4;BCS1388054;3;18
009738;14.03.2022;10:38:27;Stop           ;04.12.2018;FEY;;LION;49;14500;7200;224;6;94;99;8400;;4130;4132;1;12614;24.14;25.54;28,1;BCS1388054;3;18