File: reader/Batterieverzeichnis/009720.txt
Serialnumber ; Date ; Time ; Action ; Date of Manufacture ; Manufacturer ; Battery Name ; Device-Chemistry ; Specification-Info ; Design-Capacity [mAh] ; Design-Voltage [mV] ; Battery Status ; Cycle Count ; SOC [%] ; Relativ SOC[%] ; Desired Voltage [mV]; Desired Current [mA]; Cell Voltage 1 [mV] ; Cell Voltage 2 [mV] ; Max_Error [%] ; Busvoltage[mV] ; Battery Temperature [°C] ; Charger Temperature [°C] ; Batterysystem ; Case ; PLace
009720;07.12.2020;04:14:21;Cycle         ;04.12.2018;FEY;;LION;49;14500;7200;224;1;98;99;8400;;4159;4160;1;12983;26.04;27.74;30,3;BCS1388054;2;18
009720;08.12.2020;16:19:44;Stop          ;04.12.2018;FEY;;LION;49;14500;7200;224;2;98;100;8400;;4153;4153;1;12983;27.84;29.34;31,9;BCS1388054;2;18
009720;03.03.2021;08:17:08;Normalcharge  ;04.12.2018;FEY;;LION;49;14500;7200;192;2;95;98;8400;;4115;4116;1;13012;23.44;22.74;23,5;BCS1388054;1;7
009720;04.03.2021;07:53:51;Stop          ;04.12.2018;FEY;;LION;49;14500;7200;192;2;95;98;8400;;4115;4115;1;13006;26.54;27.54;31,6;BCS1388054;1;7
009720;04.04.2021;11:50:33;Normalcharge  ;04.12.2018;FEY;;LION;49;14500;7200;192;3;51;53;8400;3000;3674;3673;1;13002;25.24;26.74;27,9;BCS1388054;2;17
009720;04.04.2021;11:51:48;Stop          ;04.12.2018;FEY;;LION;49;14500;7200;128;3;51;53;8400;3000;3761;3712;1;12571;25.34;29.94;28,6;BCS1388054;2;17
009720;05.04.2021;09:38:11;Charge to 60% ;04.12.2018;FEY;;LION;49;14500;7200;192;3;51;53;8400;3000;3676;3675;1;13002;25.34;25.64;26,3;BCS1388054;4;14
009720;05.04.2021;10:13:52;Stop          ;04.12.2018;FEY;;LION;49;14500;7200;192;3;58;60;8400;3000;3752;3755;1;12999;28.14;30.74;32,1;BCS1388054;4;14
009720;22.08.2021;11:07:50;Normalcharge  ;04.12.2018;FEY;;LION;49;14500;7200;192;3;44;45;8400;3000;3619;3618;1;12986;22.94;30.64;32,0;BCS1388054;1;1
009720;22.08.2021;11:08:23;Stop          ;04.12.2018;FEY;;LION;49;14500;7200;128;3;44;45;8400;3000;3670;3640;1;12643;23.04;31.54;32,4;BCS1388054;1;1