File: reader/Batterieverzeichnis/009797.txt
Serialnumber ; Date ; Time ; Action ; Date of Manufacture ; Manufacturer ; Battery Name ; Device-Chemistry ; Specification-Info ; Design-Capacity [mAh] ; Design-Voltage [mV] ; Battery Status ; Cycle Count ; SOC [%] ; Relativ SOC[%] ; Desired Voltage [mV]; Desired Current [mA]; Cell Voltage 1 [mV] ; Cell Voltage 2 [mV] ; Max_Error [%] ; Busvoltage[mV] ; Battery Temperature [°C] ; Charger Temperature [°C] ; Batterysystem ; Case ; PLace
009797;07.12.2020;04:14:17;Cycle         ;04.12.2018;FEY;;LION;49;14500;7200;224;2;98;99;8400;;4147;4147;1;13001;25.94;28.94;30,3;BCS1388054;1;15
009797;08.12.2020;16:19:38;Stop          ;04.12.2018;FEY;;LION;49;14500;7200;224;3;97;100;8400;;4151;4152;1;13000;27.74;30.44;31,9;BCS1388054;1;15
009797;03.03.2021;08:17:21;Normalcharge  ;04.12.2018;FEY;;LION;49;14500;7200;192;3;89;92;8400;3000;4058;4059;1;13012;23.44;23.94;23,5;BCS1388054;3;13
009797;04.03.2021;07:53:40;Stop           ;04.12.2018;FEY;;LION;49;14500;7200;224;3;98;100;8400;;4146;4147;1;13005;26.84;28.84;31,5;BCS1388054;3;13
009797;04.04.2021;11:50:10;Normalcharge  ;04.12.2018;FEY;;LION;49;14500;7200;192;3;53;55;8400;3000;3698;3699;1;12998;25.24;26.74;27,8;BCS1388054;5;7
009797;04.04.2021;11:51:30;Stop          ;04.12.2018;FEY;;LION;49;14500;7200;128;3;53;55;8400;3000;3784;3738;1;12681;25.34;29.84;28,5;BCS1388054;5;7
009797;05.04.2021;09:38:00;Ladung auf 60% ;04.12.2018;FEY;;LION;49;14500;7200;192;3;53;55;8400;3000;3701;3701;1;13008;25.24;25.94;26,3;BCS1388054;3;10
009797;05.04.2021;10:06:07;Stop           ;04.12.2018;FEY;;LION;49;14500;7200;192;3;57;60;8400;3000;3758;3761;1;13003;27.14;29.14;31,4;BCS1388054;3;10
009797;22.08.2021;11:08:14;Normalcharge  ;04.12.2018;FEY;;LION;49;14500;7200;192;3;53;55;8400;3000;3700;3700;1;12986;30.14;30.94;32,2;BCS1388054;6;13
009797;22.08.2021;11:08:47;Stop          ;04.12.2018;FEY;;LION;49;14500;7200;128;3;53;55;8400;3000;3719;3709;1;12780;30.14;32.04;32,5;BCS1388054;6;13
009797;25.08.2021;08:13:04;Normalcharge  ;04.12.2018;FEY;;LION;49;14500;7200;192;3;53;54;8400;3000;3686;3687;1;13020;30.74;31.74;32,4;BCS1388054;7;10
009797;25.08.2021;08:13:16;Stop          ;04.12.2018;FEY;;LION;49;14500;7200;192;3;53;54;8400;3000;3687;3687;1;13009;30.74;32.04;32,5;BCS1388054;7;10
009797;25.08.2021;08:14:41;Charge to 60% ;04.12.2018;FEY;;LION;49;14500;7200;192;3;53;54;8400;3000;3686;3687;1;13014;30.74;32.04;33,0;BCS1388054;7;10
009797;25.08.2021;08:37:46;Stop          ;04.12.2018;FEY;;LION;49;14500;7200;128;3;57;59;8400;3000;3835;3786;1;12730;32.44;39.14;36,1;BCS1388054;7;10
009797;25.08.2021;08:38:03;Charge to 60% ;04.12.2018;FEY;;LION;49;14500;7200;128;3;57;59;8400;3000;3752;3753;1;13014;32.54;38.04;36,1;BCS1388054;7;10
009797;25.08.2021;13:26:36;Stop          ;04.12.2018;FEY;;LION;49;14500;7200;192;3;58;60;8400;3000;3743;3744;1;13014;32.94;33.94;36,4;BCS1388054;7;10
009797;01.11.2021;09:51:55;Normalcharge  ;04.12.2018;FEY;;LION;49;14500;7200;192;3;55;57;8400;3000;3714;3714;1;13009;26.04;26.04;26,3;BCS1388054;6;3
009797;01.11.2021;09:53:45;Stop          ;04.12.2018;FEY;;LION;49;14500;7200;128;3;56;57;8400;3000;3809;3761;1;12639;26.14;30.54;27,3;BCS1388054;6;3
009797;01.11.2021;10:02:24;Normalcharge  ;04.12.2018;FEY;;LION;49;14500;7200;192;3;56;57;8400;3000;3718;3719;1;13002;26.24;28.74;29,5;BCS1388054;6;3
009797;01.11.2021;10:03:07;Stop          ;04.12.2018;FEY;;LION;49;14500;7200;128;3;56;57;8400;3000;3783;3747;1;12641;26.24;29.94;29,3;BCS1388054;6;3
009797;01.11.2021;10:27:30;Normalcharge  ;04.12.2018;FEY;;LION;49;14500;7200;192;3;56;57;8400;3000;3719;3719;1;13006;26.54;26.74;27,8;BCS1388054;6;3
009797;01.11.2021;10:29:18;Stop          ;04.12.2018;FEY;;LION;49;14500;7200;128;3;56;58;8400;3000;3813;3766;1;12638;26.64;31.34;28,6;BCS1388054;6;3