File: reader/Batterieverzeichnis/009798.txt
Serialnumber ; Date ; Time ; Action ; Date of Manufacture ; Manufacturer ; Battery Name ; Device-Chemistry ; Specification-Info ; Design-Capacity [mAh] ; Design-Voltage [mV] ; Battery Status ; Cycle Count ; SOC [%] ; Relativ SOC[%] ; Desired Voltage [mV]; Desired Current [mA]; Cell Voltage 1 [mV] ; Cell Voltage 2 [mV] ; Max_Error [%] ; Busvoltage[mV] ; Battery Temperature [°C] ; Charger Temperature [°C] ; Batterysystem ; Case ; PLace
009798;12.01.2021;04:17:28;Ladung auf 90% ;03.12.2018;FEY;;LION;49;14500;7200;16576;2;92;92;;;4067;4066;1;12999;22.74;23.94;23,6;BCS1388054;3;8
009798;12.01.2021;04:57:30;Stop           ;03.12.2018;FEY;;LION;49;14500;7200;192;2;91;90;8400;3000;4055;4054;1;12993;25.74;30.44;31,5;BCS1388054;3;8
009798;12.01.2021;05:21:45;Cycle          ;03.12.2018;FEY;;LION;49;14500;7200;192;2;91;90;8400;3000;4055;4054;1;12995;26.44;28.84;30,4;BCS1388054;3;8
009798;13.01.2021;08:23:25;Stop           ;03.12.2018;FEY;;LION;49;14500;7200;224;3;98;100;8400;;4156;4154;1;12993;27.04;28.84;31,4;BCS1388054;3;8
009798;21.02.2021;13:44:56;Normalcharge  ;03.12.2018;FEY;;LION;49;14500;7200;192;4;65;67;8400;3000;3826;3826;1;13013;22.54;23.24;27,7;BCS1388054;5;3
009798;21.02.2021;19:31:36;Stop          ;03.12.2018;FEY;;LION;49;14500;7200;224;4;98;100;8400;;4154;4154;1;13007;26.74;28.84;30,6;BCS1388054;5;3
009798;08.04.2021;07:57:52;Normalcharge  ;03.12.2018;FEY;;LION;49;14500;7200;224;4;97;99;8400;;4125;4125;1;13005;24.94;24.74;26,3;BCS1388054;1;10
009798;08.04.2021;07:59:50;Stop          ;03.12.2018;FEY;;LION;49;14500;7200;224;4;97;99;8400;;4126;4125;1;12947;24.94;25.64;26,8;BCS1388054;1;10
009798;08.04.2021;10:34:35;Normalcharge  ;03.12.2018;FEY;;LION;49;14500;7200;224;4;97;99;8400;;4126;4125;1;12999;26.04;26.64;28,1;BCS1388054;1;10
009798;08.04.2021;10:36:49;Stop          ;03.12.2018;FEY;;LION;49;14500;7200;224;4;97;99;8400;;4126;4125;1;12889;26.04;26.84;28,9;BCS1388054;1;10
009798;18.04.2021;08:33:24;Normalcharge  ;03.12.2018;FEY;;LION;49;14500;7200;224;4;97;99;8400;;4122;4122;1;12998;25.84;26.04;27,7;BCS1388054;1;10
009798;18.04.2021;08:33:29;Stop          ;03.12.2018;FEY;;LION;49;14500;7200;224;4;97;99;8400;;4122;4122;1;12994;25.84;26.04;27,7;BCS1388054;1;10
009798;04.08.2021;07:25:01;Normalcharge  ;03.12.2018;FEY;;LION;49;14500;7200;192;4;94;96;8400;;4092;4091;1;12996;30.24;30.24;31,5;BCS1388054;1;10
009798;04.08.2021;07:25:57;Stop          ;03.12.2018;FEY;;LION;49;14500;7200;192;4;94;96;8400;;4092;4091;1;12782;30.24;30.54;31,9;BCS1388054;1;10
009798;22.08.2021;11:07:59;Normalcharge  ;03.12.2018;FEY;;LION;49;14500;7200;192;4;54;56;8400;3000;3704;3703;1;13007;22.44;29.94;32,1;BCS1388054;3;3
009798;22.08.2021;11:08:33;Stop           ;03.12.2018;FEY;;LION;49;14500;7200;128;4;54;56;8400;3000;3761;3728;1;12713;22.54;31.14;32,4;BCS1388054;3;3
009798;25.08.2021;08:15:02;Charge to 60% ;03.12.2018;FEY;;LION;49;14500;7200;192;4;54;56;8400;3000;3706;3706;1;13005;29.94;32.04;33,2;BCS1388054;5;16
009798;25.08.2021;13:03:31;Stop          ;03.12.2018;FEY;;LION;49;14500;7200;192;4;58;60;8400;3000;3758;3760;1;13004;32.34;34.54;36,6;BCS1388054;5;16
009798;01.11.2021;10:18:16;Normalcharge  ;03.12.2018;FEY;;LION;49;14500;7200;192;4;56;57;8400;3000;3724;3724;1;12999;25.74;25.74;28,2;BCS1388054;3;16
009798;01.11.2021;10:18:56;Stop           ;03.12.2018;FEY;;LION;49;14500;7200;128;4;56;57;8400;3000;3798;3755;1;12599;25.74;27.24;28,2;BCS1388054;3;16
009798;01.11.2021;10:27:50;Normalcharge  ;03.12.2018;FEY;;LION;49;14500;7200;192;4;56;57;8400;3000;3725;3725;1;12998;25.74;26.04;27,8;BCS1388054;3;16
009798;01.11.2021;10:29:05;Stop           ;03.12.2018;FEY;;LION;49;14500;7200;128;4;56;58;8400;3000;3816;3769;1;12557;25.84;28.64;28,5;BCS1388054;3;16