File: reader/Batterieverzeichnis/009732.txt
Serialnumber ; Date ; Time ; Action ; Date of Manufacture ; Manufacturer ; Battery Name ; Device-Chemistry ; Specification-Info ; Design-Capacity [mAh] ; Design-Voltage [mV] ; Battery Status ; Cycle Count ; SOC [%] ; Relativ SOC[%] ; Desired Voltage [mV]; Desired Current [mA]; Cell Voltage 1 [mV] ; Cell Voltage 2 [mV] ; Max_Error [%] ; Busvoltage[mV] ; Battery Temperature [°C] ; Charger Temperature [°C] ; Batterysystem ; Case ; PLace
009732;07.12.2020;04:14:40;Cycle         ;04.12.2018;FEY;;LION;49;14500;7200;192;2;96;97;8400;;4134;4135;1;13021;25.64;26.24;30,3;BCS1388054;7;6
009732;08.12.2020;16:20:20;Stop          ;04.12.2018;FEY;;LION;49;14500;7200;192;2;96;97;8400;;4132;4133;1;13023;27.44;27.54;31,9;BCS1388054;7;6
009732;12.01.2021;04:17:47;Charge to 90% ;04.12.2018;FEY;;LION;49;14500;7200;192;2;95;96;8400;;4120;4121;1;13036;23.04;24.44;23,8;BCS1388054;7;8
009732;12.01.2021;04:57:19;Stop          ;04.12.2018;FEY;;LION;49;14500;7200;192;3;90;90;8400;3000;4061;4061;1;13030;26.34;29.54;31,5;BCS1388054;7;8
009732;12.01.2021;05:22:01;Cycle         ;04.12.2018;FEY;;LION;49;14500;7200;192;3;90;90;8400;3000;4065;4065;1;13031;26.54;28.34;30,4;BCS1388054;7;8
009732;13.01.2021;08:19:29;Stop          ;04.12.2018;FEY;;LION;49;14500;7200;224;4;96;100;8400;;4155;4156;1;13031;26.74;28.34;30,7;BCS1388054;7;8
009732;21.02.2021;13:44:56;Normalcharge  ;04.12.2018;FEY;;LION;49;14500;7200;192;5;40;42;8400;3000;3611;3611;1;13013;22.64;23.24;27,7;BCS1388054;5;16
009732;21.02.2021;19:31:36;Stop          ;04.12.2018;FEY;;LION;49;14500;7200;224;5;96;100;8400;;4158;4157;1;13009;27.44;28.24;30,6;BCS1388054;5;16
009732;06.04.2021;08:39:03;Normalcharge  ;04.12.2018;FEY;;LION;49;14500;7200;224;5;96;99;8400;;4128;4128;1;12998;21.24;25.14;28,1;BCS1388054;4;5
009732;06.04.2021;08:39:53;Stop          ;04.12.2018;FEY;;LION;49;14500;7200;224;5;96;99;8400;;4128;4127;1;12996;21.34;25.44;28,4;BCS1388054;4;5
009732;08.04.2021;07:58:12;Normalcharge  ;04.12.2018;FEY;;LION;49;14500;7200;224;5;96;99;8400;;4128;4127;1;12999;25.24;23.54;26,3;BCS1388054;4;5
009732;08.04.2021;07:59:34;Stop          ;04.12.2018;FEY;;LION;49;14500;7200;224;5;96;99;8400;;4127;4127;1;12980;25.24;25.94;26,7;BCS1388054;4;5
009732;08.04.2021;10:36:07;Normalcharge  ;04.12.2018;FEY;;LION;49;14500;7200;224;5;96;99;8400;;4127;4127;1;12998;25.44;26.04;28,5;BCS1388054;4;5
009732;08.04.2021;10:37:03;Stop          ;04.12.2018;FEY;;LION;49;14500;7200;224;5;96;99;8400;;4128;4127;1;12975;25.44;26.34;29,0;BCS1388054;4;5
009732;18.04.2021;08:34:04;Normalcharge  ;04.12.2018;FEY;;LION;49;14500;7200;224;5;96;99;8400;;4124;4123;1;12997;26.14;26.94;27,9;BCS1388054;4;5
009732;18.04.2021;08:34:10;Stop          ;04.12.2018;FEY;;LION;49;14500;7200;224;5;96;99;8400;;4124;4124;1;12996;26.14;26.94;28,1;BCS1388054;4;5
009732;04.08.2021;07:24:46;Normalcharge  ;04.12.2018;FEY;;LION;49;14500;7200;192;5;93;96;8400;;4093;4092;1;12993;30.34;30.84;31,5;BCS1388054;4;5
009732;04.08.2021;07:25:30;Stop          ;04.12.2018;FEY;;LION;49;14500;7200;192;5;93;96;8400;;4093;4092;1;12972;30.24;31.14;31,7;BCS1388054;4;5
009732;22.08.2021;11:37:17;Normalcharge  ;04.12.2018;FEY;;LION;49;14500;7200;192;5;93;96;8400;;4088;4087;1;12998;22.84;28.64;31,9;BCS1388054;6;12
009732;22.08.2021;11:37:57;Stop          ;04.12.2018;FEY;;LION;49;14500;7200;192;5;93;96;8400;;4088;4087;1;12857;22.94;28.74;32,0;BCS1388054;6;12
009732;12.10.2021;12:59:04;Normalcharge  ;04.12.2018;FEY;;LION;49;14500;7200;192;5;88;90;8400;3000;4036;4035;1;13023;23.84;26.54;28,5;BCS1388054;7;13
009732;12.10.2021;12:59:37;Stop          ;04.12.2018;FEY;;LION;49;14500;7200;128;5;88;90;8400;3000;4051;4044;1;12934;23.84;27.74;28,6;BCS1388054;7;13
009732;14.10.2021;12:40:13;Normalcharge  ;04.12.2018;FEY;;LION;49;14500;7200;192;5;87;90;8400;3000;4035;4034;1;12993;23.74;25.54;27,9;BCS1388054;5;13
009732;14.10.2021;12:41:50;Stop          ;04.12.2018;FEY;;LION;49;14500;7200;128;5;87;90;8400;3000;4113;4081;1;12638;23.84;29.04;28,5;BCS1388054;5;13
009732;28.12.2021;09:01:29;Normalcharge  ;04.12.2018;FEY;;LION;49;14500;7200;192;5;69;71;8400;3000;3856;3855;1;13010;23.54;24.54;25,4;BCS1388054;4;1
009732;28.12.2021;09:02:38;Stop          ;04.12.2018;FEY;;LION;49;14500;7200;128;5;69;71;8400;3000;3948;3899;1;12625;23.54;27.24;25,8;BCS1388054;4;1
009732;07.02.2022;08:50:37;Normalcharge  ;04.12.2018;FEY;;LION;49;14500;7200;192;5;69;71;8400;3000;3849;3848;1;13035;22.24;21.74;25,0;BCS1388054;7;1
009732;07.02.2022;14:21:07;Stop          ;04.12.2018;FEY;;LION;49;14500;7200;224;5;98;100;8400;;4148;4148;1;13028;25.24;26.74;28,9;BCS1388054;7;1
009732;14.03.2022;10:33:51;Normalcharge  ;04.12.2018;FEY;;LION;49;14500;7200;224;5;96;99;8400;;4128;4128;1;13005;24.14;24.14;25,3;BCS1388054;5;6
009732;14.03.2022;10:38:12;Stop          ;04.12.2018;FEY;;LION;49;14500;7200;224;5;96;99;8400;;4128;4128;1;12701;24.24;25.14;28,1;BCS1388054;5;6