File: reader/Batterieverzeichnis/009765.txt
Serialnumber ; Date ; Time ; Action ; Date of Manufacture ; Manufacturer ; Battery Name ; Device-Chemistry ; Specification-Info ; Design-Capacity [mAh] ; Design-Voltage [mV] ; Battery Status ; Cycle Count ; SOC [%] ; Relativ SOC[%] ; Desired Voltage [mV]; Desired Current [mA]; Cell Voltage 1 [mV] ; Cell Voltage 2 [mV] ; Max_Error [%] ; Busvoltage[mV] ; Battery Temperature [°C] ; Charger Temperature [°C] ; Batterysystem ; Case ; PLace
009765;07.12.2020;04:14:32;Cycle         ;04.12.2018;FEY;;LION;49;14500;7200;16576;3;97;98;;;4133;4132;1;13011;25.84;27.14;30,3;BCS1388054;5;17
009765;08.12.2020;16:20:01;Stop          ;04.12.2018;FEY;;LION;49;14500;7200;16576;3;97;98;;;4131;4130;1;13011;27.94;28.74;31,7;BCS1388054;5;17
009765;07.02.2021;08:46:54;Normalcharge  ;04.12.2018;FEY;;LION;49;14500;7200;16576;3;94;95;;;4095;4094;1;13002;23.84;25.04;29,2;BCS1388054;3;12
009765;07.02.2021;11:52:16;Stop           ;04.12.2018;FEY;;LION;49;14500;7200;16576;3;94;95;;;4095;4094;1;13001;26.04;26.14;29,7;BCS1388054;3;12
009765;03.03.2021;08:17:40;Normalcharge  ;04.12.2018;FEY;;LION;49;14500;7200;192;3;71;72;8400;3000;3873;3872;1;13005;23.34;22.74;23,6;BCS1388054;6;5
009765;03.03.2021;11:56:52;Stop          ;04.12.2018;FEY;;LION;49;14500;7200;224;3;99;100;8400;;4158;4157;1;12998;28.04;27.74;31,7;BCS1388054;6;5
009765;06.04.2021;08:38:46;Normalcharge  ;04.12.2018;FEY;;LION;49;14500;7200;224;3;97;99;8400;;4132;4132;1;13018;20.84;25.34;28,1;BCS1388054;2;9
009765;06.04.2021;08:39:36;Stop          ;04.12.2018;FEY;;LION;49;14500;7200;224;3;97;99;8400;;4133;4132;1;13015;20.94;25.54;28,2;BCS1388054;2;9
009765;08.04.2021;07:57:57;Normalcharge  ;04.12.2018;FEY;;LION;49;14500;7200;224;3;97;99;8400;;4132;4132;1;13018;25.44;25.44;26,3;BCS1388054;2;9
009765;08.04.2021;07:59:45;Stop          ;04.12.2018;FEY;;LION;49;14500;7200;224;3;97;99;8400;;4133;4132;1;13015;25.54;26.24;26,8;BCS1388054;2;9
009765;08.04.2021;10:35:00;Normalcharge  ;04.12.2018;FEY;;LION;49;14500;7200;224;3;97;99;8400;;4133;4132;1;13019;25.94;25.94;28,1;BCS1388054;2;9
009765;08.04.2021;10:36:53;Stop          ;04.12.2018;FEY;;LION;49;14500;7200;224;3;97;99;8400;;4132;4132;1;13014;25.94;26.74;28,9;BCS1388054;2;9
009765;18.04.2021;08:33:36;Normalcharge  ;04.12.2018;FEY;;LION;49;14500;7200;224;3;97;99;8400;;4129;4128;1;13015;26.44;26.84;27,7;BCS1388054;2;9
009765;18.04.2021;08:33:44;Stop          ;04.12.2018;FEY;;LION;49;14500;7200;224;3;97;99;8400;;4129;4128;1;13015;26.44;26.94;27,8;BCS1388054;2;9
009765;04.08.2021;07:24:55;Normalcharge  ;04.12.2018;FEY;;LION;49;14500;7200;192;3;94;96;8400;;4096;4095;1;13012;30.74;31.24;31,5;BCS1388054;2;9
009765;04.08.2021;07:25:47;Stop          ;04.12.2018;FEY;;LION;49;14500;7200;192;3;94;96;8400;;4096;4095;1;13010;30.74;31.54;31,9;BCS1388054;2;9
009765;22.08.2021;11:08:05;Normalcharge  ;04.12.2018;FEY;;LION;49;14500;7200;192;3;92;94;8400;3000;4082;4081;1;12999;22.74;30.04;32,1;BCS1388054;4;7
009765;22.08.2021;11:08:37;Stop          ;04.12.2018;FEY;;LION;49;14500;7200;128;3;92;94;8400;3000;4124;4107;1;12696;22.84;31.04;32,5;BCS1388054;4;7
009765;12.10.2021;12:15:20;Normalcharge  ;04.12.2018;FEY;;LION;49;14500;7200;192;3;90;92;8400;3000;4057;4056;1;12992;24.84;26.34;27,9;BCS1388054;1;2
009765;12.10.2021;12:15:34;Stop          ;04.12.2018;FEY;;LION;49;14500;7200;192;3;90;92;8400;3000;4057;4056;1;12977;24.94;26.74;27,9;BCS1388054;1;2
009765;14.10.2021;12:40:07;Normalcharge  ;04.12.2018;FEY;;LION;49;14500;7200;192;3;88;90;8400;3000;4030;4029;1;13004;25.24;26.94;27,9;BCS1388054;4;7
009765;14.10.2021;12:41:43;Stop          ;04.12.2018;FEY;;LION;49;14500;7200;128;3;88;90;8400;3000;4111;4075;1;12672;25.24;30.14;28,4;BCS1388054;4;7
009765;14.03.2022;10:34:06;Normalcharge  ;04.12.2018;FEY;;LION;49;14500;7200;192;3;80;82;8400;3000;3938;3938;1;13007;24.34;24.84;25,4;BCS1388054;3;5
009765;14.03.2022;10:38:27;Stop           ;04.12.2018;FEY;;LION;49;14500;7200;128;3;81;83;8400;3000;4050;4000;1;12633;24.64;28.84;28,1;BCS1388054;3;5