File: reader/Batterieverzeichnis/009746.txt
Serialnumber ; Date ; Time ; Action ; Date of Manufacture ; Manufacturer ; Battery Name ; Device-Chemistry ; Specification-Info ; Design-Capacity [mAh] ; Design-Voltage [mV] ; Battery Status ; Cycle Count ; SOC [%] ; Relativ SOC[%] ; Desired Voltage [mV]; Desired Current [mA]; Cell Voltage 1 [mV] ; Cell Voltage 2 [mV] ; Max_Error [%] ; Busvoltage[mV] ; Battery Temperature [°C] ; Charger Temperature [°C] ; Batterysystem ; Case ; PLace
009746;07.12.2020;04:14:17;Cycle         ;04.12.2018;FEY;;LION;49;14500;7200;224;3;100;99;8400;;4149;4148;1;12999;25.54;26.64;30,3;BCS1388054;1;10
009746;08.12.2020;16:19:38;Stop          ;04.12.2018;FEY;;LION;49;14500;7200;224;4;98;100;8400;;4152;4153;1;12997;27.24;27.84;31,9;BCS1388054;1;10
009746;03.03.2021;08:17:29;Normalcharge  ;04.12.2018;FEY;;LION;49;14500;7200;192;4;85;88;8400;3000;4014;4015;1;12999;23.04;23.34;23,5;BCS1388054;4;11
009746;03.03.2021;10:32:46;Stop          ;04.12.2018;FEY;;LION;49;14500;7200;224;4;98;100;8400;;4157;4159;1;12994;27.94;28.04;32,0;BCS1388054;4;11
009746;04.04.2021;11:50:10;Normalcharge  ;04.12.2018;FEY;;LION;49;14500;7200;224;4;96;99;8400;;4133;4134;1;13009;24.84;26.74;27,8;BCS1388054;5;2
009746;04.04.2021;11:51:30;Stop          ;04.12.2018;FEY;;LION;49;14500;7200;224;4;96;99;8400;;4134;4135;1;12693;24.84;27.54;28,5;BCS1388054;5;2
009746;22.08.2021;11:37:25;Normalcharge  ;04.12.2018;FEY;;LION;49;14500;7200;192;4;91;93;8400;3000;4063;4064;1;12996;21.14;27.84;31,9;BCS1388054;4;14
009746;22.08.2021;11:38:13;Stop          ;04.12.2018;FEY;;LION;49;14500;7200;128;4;91;93;8400;3000;4118;4096;1;12628;21.34;29.94;32,1;BCS1388054;4;14
009746;14.10.2021;12:40:18;Normalcharge  ;04.12.2018;FEY;;LION;49;14500;7200;192;5;69;71;8400;3000;3841;3842;1;12999;23.24;25.74;28,1;BCS1388054;6;12
009746;14.10.2021;12:41:59;Stop          ;04.12.2018;FEY;;LION;49;14500;7200;128;5;69;71;8400;3000;3937;3891;1;12625;23.44;28.04;28,5;BCS1388054;6;12
009746;07.02.2022;08:51:46;Normalcharge  ;04.12.2018;FEY;;LION;49;14500;7200;192;5;69;71;8400;3000;3814;3815;1;13016;22.34;23.24;25,6;BCS1388054;2;9
009746;07.02.2022;13:15:56;Stop          ;04.12.2018;FEY;;LION;49;14500;7200;224;5;98;100;8400;;4155;4156;1;13011;25.94;27.14;31,1;BCS1388054;2;9
009746;14.03.2022;12:14:44;Normalcharge  ;04.12.2018;FEY;;LION;49;14500;7200;224;5;96;99;8400;;4130;4131;1;12993;24.24;25.24;27,7;BCS1388054;1;5
009746;14.03.2022;12:15:19;Stop          ;04.12.2018;FEY;;LION;49;14500;7200;224;5;96;99;8400;;4130;4131;1;12992;24.34;25.34;27,9;BCS1388054;1;5
009746;14.03.2022;12:15:29;Normalcharge  ;04.12.2018;FEY;;LION;49;14500;7200;224;5;96;99;8400;;4130;4131;1;12992;24.34;25.34;28,1;BCS1388054;1;5
009746;14.03.2022;12:16:01;Stop          ;04.12.2018;FEY;;LION;49;14500;7200;224;5;96;99;8400;;4131;4131;1;12992;24.34;25.44;28,4;BCS1388054;1;5
009746;14.03.2022;12:17:43;Normalcharge  ;04.12.2018;FEY;;LION;49;14500;7200;224;5;96;99;8400;;4130;4131;1;12992;24.34;25.64;29,2;BCS1388054;1;5
009746;14.03.2022;12:18:20;Stop          ;04.12.2018;FEY;;LION;49;14500;7200;224;5;96;99;8400;;4131;4131;1;12992;24.34;25.64;29,3;BCS1388054;1;5
009746;14.03.2022;12:19:16;Normalcharge  ;04.12.2018;FEY;;LION;49;14500;7200;224;5;96;99;8400;;4131;4131;1;12992;24.34;25.64;29,5;BCS1388054;1;5
009746;14.03.2022;12:19:20;Stop          ;04.12.2018;FEY;;LION;49;14500;7200;224;5;96;99;8400;;4131;4131;1;12992;24.34;25.74;29,6;BCS1388054;1;5
009746;29.03.2022;08:20:58;Normalcharge  ;04.12.2018;FEY;;LION;49;14500;7200;192;5;86;89;8400;3000;4019;4020;1;13010;24.64;24.64;25,7;BCS1388054;4;8
009746;29.03.2022;08:21:36;Stop          ;04.12.2018;FEY;;LION;49;14500;7200;128;5;86;89;8400;3000;4058;4039;1;12717;24.64;25.94;26,0;BCS1388054;4;8
009746;29.03.2022;08:22:11;Normalcharge  ;04.12.2018;FEY;;LION;49;14500;7200;128;5;86;89;8400;3000;4021;4023;1;13008;24.64;25.64;26,3;BCS1388054;4;8
009746;29.03.2022;08:22:29;Stop          ;04.12.2018;FEY;;LION;49;14500;7200;128;5;86;89;8400;3000;4024;4024;1;12896;24.64;26.04;26,4;BCS1388054;4;8