File: reader/Batterieverzeichnis/009794.txt
Serialnumber ; Date ; Time ; Action ; Date of Manufacture ; Manufacturer ; Battery Name ; Device-Chemistry ; Specification-Info ; Design-Capacity [mAh] ; Design-Voltage [mV] ; Battery Status ; Cycle Count ; SOC [%] ; Relativ SOC[%] ; Desired Voltage [mV]; Desired Current [mA]; Cell Voltage 1 [mV] ; Cell Voltage 2 [mV] ; Max_Error [%] ; Busvoltage[mV] ; Battery Temperature [°C] ; Charger Temperature [°C] ; Batterysystem ; Case ; PLace
009794;07.12.2020;04:14:32;Cycle         ;04.12.2018;FEY;;LION;49;14500;7200;192;1;97;98;8400;;4127;4128;1;12997;25.74;27.74;30,3;BCS1388054;5;14
009794;08.12.2020;16:20:01;Stop          ;04.12.2018;FEY;;LION;49;14500;7200;192;1;97;98;8400;;4125;4126;1;12995;27.84;29.44;31,7;BCS1388054;5;14
009794;07.02.2021;08:46:59;Normalcharge  ;04.12.2018;FEY;;LION;49;14500;7200;192;1;93;94;8400;3000;4083;4084;1;13009;23.64;26.14;29,2;BCS1388054;4;1
009794;07.02.2021;11:52:20;Stop          ;04.12.2018;FEY;;LION;49;14500;7200;224;1;99;100;8400;;4150;4152;1;13007;25.94;27.44;29,7;BCS1388054;4;1
009794;03.03.2021;08:17:08;Normalcharge  ;04.12.2018;FEY;;LION;49;14500;7200;192;1;96;98;8400;;4117;4118;1;13012;23.14;23.94;23,5;BCS1388054;1;6
009794;04.03.2021;07:53:51;Stop          ;04.12.2018;FEY;;LION;49;14500;7200;192;1;96;98;8400;;4116;4117;1;13006;26.04;27.34;31,6;BCS1388054;1;6
009794;06.04.2021;08:39:21;Normalcharge  ;04.12.2018;FEY;;LION;49;14500;7200;192;1;95;97;8400;;4106;4107;1;13027;21.24;25.54;28,1;BCS1388054;7;12
009794;06.04.2021;08:40:08;Stop          ;04.12.2018;FEY;;LION;49;14500;7200;192;1;95;97;8400;;4106;4107;1;12948;21.34;25.54;28,5;BCS1388054;7;12
009794;08.04.2021;07:59:03;Normalcharge  ;04.12.2018;FEY;;LION;49;14500;7200;192;1;95;97;8400;;4106;4107;1;13022;25.24;25.74;26,4;BCS1388054;7;12
009794;08.04.2021;07:59:16;Stop          ;04.12.2018;FEY;;LION;49;14500;7200;192;1;95;97;8400;;4106;4107;1;13021;25.24;25.74;26,6;BCS1388054;7;12
009794;08.04.2021;10:36:43;Normalcharge  ;04.12.2018;FEY;;LION;49;14500;7200;192;1;95;97;8400;;4106;4107;1;13021;25.34;26.24;28,9;BCS1388054;7;12
009794;08.04.2021;10:37:15;Stop          ;04.12.2018;FEY;;LION;49;14500;7200;192;1;95;97;8400;;4106;4107;1;12954;25.44;26.34;29,2;BCS1388054;7;12
009794;18.04.2021;08:34:46;Normalcharge  ;04.12.2018;FEY;;LION;49;14500;7200;192;1;95;97;8400;;4103;4104;1;13019;26.14;27.14;28,2;BCS1388054;7;12
009794;18.04.2021;08:34:54;Stop          ;04.12.2018;FEY;;LION;49;14500;7200;192;1;95;97;8400;;4103;4104;1;13016;26.14;27.14;28,4;BCS1388054;7;12
009794;04.08.2021;07:24:29;Normalcharge  ;04.12.2018;FEY;;LION;49;14500;7200;192;1;95;97;8400;;4075;4077;1;13017;30.04;31.04;31,5;BCS1388054;7;12
009794;04.08.2021;07:25:08;Stop          ;04.12.2018;FEY;;LION;49;14500;7200;192;1;95;97;8400;;4075;4077;1;12971;30.04;31.24;31,6;BCS1388054;7;12