File: reader/Batterieverzeichnis/009736.txt
Serialnumber ; Date ; Time ; Action ; Date of Manufacture ; Manufacturer ; Battery Name ; Device-Chemistry ; Specification-Info ; Design-Capacity [mAh] ; Design-Voltage [mV] ; Battery Status ; Cycle Count ; SOC [%] ; Relativ SOC[%] ; Desired Voltage [mV]; Desired Current [mA]; Cell Voltage 1 [mV] ; Cell Voltage 2 [mV] ; Max_Error [%] ; Busvoltage[mV] ; Battery Temperature [°C] ; Charger Temperature [°C] ; Batterysystem ; Case ; PLace
009736;07.12.2020;04:14:32;Cycle         ;04.12.2018;FEY;;LION;49;14500;7200;16576;4;98;98;;;4152;4151;1;13003;25.84;27.44;30,3;BCS1388054;5;1
009736;08.12.2020;16:20:01;Stop          ;04.12.2018;FEY;;LION;49;14500;7200;16576;4;98;98;;;4149;4149;1;13002;27.94;29.04;31,7;BCS1388054;5;1
009736;12.01.2021;04:17:47;Charge to 90% ;04.12.2018;FEY;;LION;49;14500;7200;16576;4;97;97;;;4132;4131;1;13023;23.14;23.04;23,8;BCS1388054;7;11
009736;12.01.2021;04:57:20;Stop          ;04.12.2018;FEY;;LION;49;14500;7200;192;4;90;90;8400;3000;4059;4059;1;13018;26.74;27.34;31,5;BCS1388054;7;11
009736;12.01.2021;05:22:01;Cycle         ;04.12.2018;FEY;;LION;49;14500;7200;192;4;90;90;8400;3000;4065;4065;1;13019;26.74;26.14;30,4;BCS1388054;7;11
009736;13.01.2021;08:19:29;Stop          ;04.12.2018;FEY;;LION;49;14500;7200;224;5;98;100;8400;;4155;4156;1;13018;26.54;26.24;30,7;BCS1388054;7;11
009736;06.04.2021;08:39:21;Normalcharge  ;04.12.2018;FEY;;LION;49;14500;7200;192;5;95;98;8400;;4114;4114;1;13036;21.44;25.54;28,1;BCS1388054;7;5
009736;06.04.2021;08:40:08;Stop          ;04.12.2018;FEY;;LION;49;14500;7200;192;5;95;98;8400;;4114;4114;1;12958;21.44;25.84;28,5;BCS1388054;7;5
009736;08.04.2021;07:59:03;Normalcharge  ;04.12.2018;FEY;;LION;49;14500;7200;192;5;95;97;8400;;4114;4114;1;13037;25.24;25.74;26,4;BCS1388054;7;5
009736;08.04.2021;07:59:16;Stop          ;04.12.2018;FEY;;LION;49;14500;7200;192;5;95;97;8400;;4114;4114;1;13033;25.24;25.74;26,6;BCS1388054;7;5
009736;08.04.2021;10:36:43;Normalcharge  ;04.12.2018;FEY;;LION;49;14500;7200;192;5;95;97;8400;;4114;4114;1;13035;25.44;26.64;28,9;BCS1388054;7;5
009736;08.04.2021;10:37:15;Stop          ;04.12.2018;FEY;;LION;49;14500;7200;192;5;95;97;8400;;4114;4114;1;12975;25.44;26.74;29,2;BCS1388054;7;5
009736;18.04.2021;08:34:46;Normalcharge  ;04.12.2018;FEY;;LION;49;14500;7200;192;5;95;97;8400;;4110;4111;1;13034;26.14;27.34;28,2;BCS1388054;7;5
009736;18.04.2021;08:34:54;Stop          ;04.12.2018;FEY;;LION;49;14500;7200;192;5;95;97;8400;;4111;4111;1;13031;26.14;27.34;28,4;BCS1388054;7;5
009736;04.08.2021;07:24:29;Normalcharge  ;04.12.2018;FEY;;LION;49;14500;7200;192;5;94;97;8400;;4082;4082;1;13032;30.14;30.94;31,5;BCS1388054;7;5
009736;04.08.2021;07:25:08;Stop          ;04.12.2018;FEY;;LION;49;14500;7200;192;5;94;97;8400;;4082;4082;1;12978;30.14;31.24;31,6;BCS1388054;7;5
009736;14.10.2021;12:39:51;Normalcharge  ;04.12.2018;FEY;;LION;49;14500;7200;192;5;86;88;8400;3000;4021;4022;1;12990;25.14;26.64;27,9;BCS1388054;1;9
009736;14.10.2021;12:41:14;Stop          ;04.12.2018;FEY;;LION;49;14500;7200;128;5;86;89;8400;3000;4105;4068;1;12467;25.24;29.54;28,2;BCS1388054;1;9
009736;28.12.2021;09:01:33;Normalcharge  ;04.12.2018;FEY;;LION;49;14500;7200;192;5;78;80;8400;3000;3918;3918;1;13015;24.04;25.24;25,4;BCS1388054;5;15
009736;28.12.2021;09:02:46;Stop          ;04.12.2018;FEY;;LION;49;14500;7200;128;5;78;80;8400;3000;4014;3968;1;12656;24.04;28.24;26,0;BCS1388054;5;15
009736;07.02.2022;08:50:47;Normalcharge  ;04.12.2018;FEY;;LION;49;14500;7200;192;5;78;80;8400;3000;3909;3909;1;13007;22.34;22.24;25,0;BCS1388054;6;14
009736;13.02.2022;10:58:40;Normalcharge  ;04.12.2018;FEY;;LION;49;14500;7200;224;5;98;100;8400;;4139;4139;1;12998;22.64;22.94;26,1;BCS1388054;4;2
009736;13.02.2022;10:59:13;Stop          ;04.12.2018;FEY;;LION;49;14500;7200;224;5;98;100;8400;;4139;4139;1;12998;22.64;23.54;26,1;BCS1388054;4;2
009736;14.03.2022;10:33:46;Normalcharge  ;04.12.2018;FEY;;LION;49;14500;7200;192;5;90;93;8400;3000;4066;4066;1;13003;24.24;24.24;25,1;BCS1388054;6;4
009736;14.03.2022;10:38:06;Stop          ;04.12.2018;FEY;;LION;49;14500;7200;128;5;91;93;8400;3000;4152;4125;1;12665;24.44;28.94;28,1;BCS1388054;6;4