File: reader/Batterieverzeichnis/009714.txt
Serialnumber ; Date ; Time ; Action ; Date of Manufacture ; Manufacturer ; Battery Name ; Device-Chemistry ; Specification-Info ; Design-Capacity [mAh] ; Design-Voltage [mV] ; Battery Status ; Cycle Count ; SOC [%] ; Relativ SOC[%] ; Desired Voltage [mV]; Desired Current [mA]; Cell Voltage 1 [mV] ; Cell Voltage 2 [mV] ; Max_Error [%] ; Busvoltage[mV] ; Battery Temperature [°C] ; Charger Temperature [°C] ; Batterysystem ; Case ; PLace
009714;07.02.2021;08:46:59;Normalcharge  ;04.12.2018;FEY;;LION;49;14500;7200;192;2;92;94;8400;3000;4075;4075;1;12993;23.34;26.84;29,2;BCS1388054;4;2
009714;07.02.2021;11:52:20;Stop          ;04.12.2018;FEY;;LION;49;14500;7200;224;2;99;100;8400;;4150;4152;1;12993;25.74;28.14;29,7;BCS1388054;4;2
009714;03.03.2021;08:17:29;Normalcharge  ;04.12.2018;FEY;;LION;49;14500;7200;192;3;85;88;8400;3000;4005;4006;1;13016;23.04;24.04;23,5;BCS1388054;4;10
009714;03.03.2021;10:32:46;Stop          ;04.12.2018;FEY;;LION;49;14500;7200;224;3;97;100;8400;;4157;4158;1;13011;28.04;29.54;32,0;BCS1388054;4;10
009714;04.04.2021;11:50:10;Normalcharge  ;04.12.2018;FEY;;LION;49;14500;7200;192;3;95;98;8400;;4114;4115;1;13016;24.74;25.54;27,8;BCS1388054;5;17
009714;04.04.2021;11:51:30;Stop          ;04.12.2018;FEY;;LION;49;14500;7200;192;3;95;98;8400;;4115;4115;1;12677;24.74;25.94;28,5;BCS1388054;5;17
009714;22.08.2021;11:07:55;Normalcharge  ;04.12.2018;FEY;;LION;49;14500;7200;192;3;82;84;8400;3000;3959;3959;1;12993;22.14;30.94;32,0;BCS1388054;2;10
009714;22.08.2021;11:08:28;Stop          ;04.12.2018;FEY;;LION;49;14500;7200;128;3;82;84;8400;3000;4017;3986;1;12588;22.24;31.94;32,4;BCS1388054;2;10