File: reader/Batterieverzeichnis/009758.txt
Serialnumber ; Date ; Time ; Action ; Date of Manufacture ; Manufacturer ; Battery Name ; Device-Chemistry ; Specification-Info ; Design-Capacity [mAh] ; Design-Voltage [mV] ; Battery Status ; Cycle Count ; SOC [%] ; Relativ SOC[%] ; Desired Voltage [mV]; Desired Current [mA]; Cell Voltage 1 [mV] ; Cell Voltage 2 [mV] ; Max_Error [%] ; Busvoltage[mV] ; Battery Temperature [°C] ; Charger Temperature [°C] ; Batterysystem ; Case ; PLace
009758;07.02.2021;08:47:00;Normalcharge  ;04.12.2018;FEY;;LION;49;14500;7200;192;3;90;92;8400;3000;4063;4063;1;13007;23.74;25.04;29,2;BCS1388054;4;12
009758;07.02.2021;11:52:20;Stop          ;04.12.2018;FEY;;LION;49;14500;7200;224;3;98;100;8400;;4150;4150;1;13008;25.74;25.74;29,7;BCS1388054;4;12
009758;03.03.2021;08:17:46;Normalcharge  ;04.12.2018;FEY;;LION;49;14500;7200;2768;5;;;8400;3000;3046;3070;1;13027;23.14;23.64;23,6;BCS1388054;7;17
009758;03.03.2021;10:54:05;Stop          ;04.12.2018;FEY;;LION;49;14500;7200;128;5;30;32;8400;3000;3675;3625;1;12689;30.24;36.44;31,4;BCS1388054;7;17
009758;16.03.2021;11:40:53;Normalcharge  ;04.12.2018;FEY;;LION;49;14500;7200;192;5;35;36;8400;3000;3575;3576;1;12999;23.94;24.24;25,1;BCS1388054;1;4
009758;16.03.2021;11:41:01;Stop          ;04.12.2018;FEY;;LION;49;14500;7200;192;5;35;36;8400;3000;3575;3575;1;12999;23.94;24.24;25,1;BCS1388054;1;4
009758;30.03.2021;10:23:45;Normalcharge  ;04.12.2018;FEY;;LION;49;14500;7200;192;5;35;36;8400;3000;3572;3573;1;12997;22.94;22.94;23,8;BCS1388054;1;4
009758;30.03.2021;10:24:57;Stop          ;04.12.2018;FEY;;LION;49;14500;7200;128;5;35;36;8400;3000;3661;3613;1;12970;22.94;25.94;24,4;BCS1388054;1;4
009758;08.04.2021;07:57:52;Normalcharge  ;04.12.2018;FEY;;LION;49;14500;7200;192;5;30;31;8400;3000;3542;3543;1;12992;25.24;26.14;26,3;BCS1388054;1;12
009758;08.04.2021;07:59:50;Stop          ;04.12.2018;FEY;;LION;49;14500;7200;128;5;30;31;8400;3000;3634;3587;1;12924;25.34;28.54;26,8;BCS1388054;1;12
009758;08.04.2021;08:09:05;Charge to 60% ;04.12.2018;FEY;;LION;49;14500;7200;192;5;30;31;8400;3000;3546;3548;1;12990;25.34;26.64;27,4;BCS1388054;1;12
009758;08.04.2021;10:32:41;Stop          ;04.12.2018;FEY;;LION;49;14500;7200;192;5;58;60;8400;3000;3733;3736;1;12961;27.04;27.14;28,8;BCS1388054;1;12
009758;08.04.2021;10:34:35;Normalcharge  ;04.12.2018;FEY;;LION;49;14500;7200;192;5;58;60;8400;3000;3732;3734;1;12986;26.94;27.24;28,1;BCS1388054;1;12
009758;08.04.2021;10:36:49;Stop          ;04.12.2018;FEY;;LION;49;14500;7200;128;5;58;60;8400;3000;3829;3784;1;12865;26.94;29.34;28,9;BCS1388054;1;12
009758;18.04.2021;08:33:24;Normalcharge  ;04.12.2018;FEY;;LION;49;14500;7200;192;5;56;57;8400;3000;3722;3723;1;12993;26.24;27.44;27,7;BCS1388054;1;12
009758;18.04.2021;08:33:29;Stop          ;04.12.2018;FEY;;LION;49;14500;7200;192;5;56;57;8400;3000;3722;3723;1;12990;26.24;27.44;27,7;BCS1388054;1;12
009758;04.08.2021;07:25:01;Normalcharge  ;04.12.2018;FEY;;LION;49;14500;7200;192;5;54;55;8400;3000;3689;3690;1;12986;30.54;31.64;31,5;BCS1388054;1;12
009758;04.08.2021;07:25:57;Stop          ;04.12.2018;FEY;;LION;49;14500;7200;128;5;54;56;8400;3000;3773;3724;1;12759;30.54;33.04;31,9;BCS1388054;1;12
009758;25.08.2021;08:15:24;Charge to 60% ;04.12.2018;FEY;;LION;49;14500;7200;192;5;52;54;8400;3000;3685;3686;1;12996;30.34;33.14;33,5;BCS1388054;1;3
009758;25.08.2021;09:25:51;Stop          ;04.12.2018;FEY;;LION;49;14500;7200;192;5;58;60;8400;3000;3746;3749;1;12994;32.24;35.14;36,6;BCS1388054;1;3
009758;01.11.2021;09:51:48;Normalcharge  ;04.12.2018;FEY;;LION;49;14500;7200;192;5;55;57;8400;3000;3712;3713;1;13027;25.94;25.84;26,3;BCS1388054;7;18
009758;01.11.2021;09:53:51;Stop          ;04.12.2018;FEY;;LION;49;14500;7200;128;5;55;57;8400;3000;3806;3760;1;12661;26.04;30.14;27,4;BCS1388054;7;18
009758;01.11.2021;10:02:29;Normalcharge  ;04.12.2018;FEY;;LION;49;14500;7200;192;5;55;57;8400;3000;3717;3718;1;13023;26.24;27.34;29,5;BCS1388054;7;18
009758;01.11.2021;10:03:04;Stop          ;04.12.2018;FEY;;LION;49;14500;7200;128;5;55;57;8400;3000;3776;3745;1;12673;26.24;28.74;29,3;BCS1388054;7;18
009758;01.11.2021;10:27:23;Normalcharge  ;04.12.2018;FEY;;LION;49;14500;7200;192;5;55;57;8400;3000;3717;3719;1;13026;26.34;26.64;27,7;BCS1388054;7;18
009758;01.11.2021;10:29:22;Stop          ;04.12.2018;FEY;;LION;49;14500;7200;128;5;56;57;8400;3000;3812;3767;1;12660;26.44;30.84;28,6;BCS1388054;7;18