File: reader/Batterieverzeichnis/009700.txt
Serialnumber ; Date ; Time ; Action ; Date of Manufacture ; Manufacturer ; Battery Name ; Device-Chemistry ; Specification-Info ; Design-Capacity [mAh] ; Design-Voltage [mV] ; Battery Status ; Cycle Count ; SOC [%] ; Relativ SOC[%] ; Desired Voltage [mV]; Desired Current [mA]; Cell Voltage 1 [mV] ; Cell Voltage 2 [mV] ; Max_Error [%] ; Busvoltage[mV] ; Battery Temperature [°C] ; Charger Temperature [°C] ; Batterysystem ; Case ; PLace
009700;30.11.2020;09:42:55;Stop          ;04.12.2018;FEY;;LION;49;14500;7200;16576;4;97;100;;;4162;4161;1;13016;27.54;28.24;31,7;BCS1388054;7;12
009700;12.01.2021;04:16:00;Charge to 90% ;04.12.2018;FEY;;LION;49;14500;7200;16576;4;96;98;;;4138;4137;1;12992;23.04;23.34;23,0;BCS1388054;1;12
009700;12.01.2021;04:16:03;Stop          ;04.12.2018;FEY;;LION;49;14500;7200;16576;4;96;98;;;4138;4137;1;12993;23.04;23.84;23,0;BCS1388054;1;12
009700;12.01.2021;04:17:15;Charge to 90% ;04.12.2018;FEY;;LION;49;14500;7200;16576;4;96;98;;;4138;4138;1;12990;23.04;24.14;23,5;BCS1388054;1;12
009700;12.01.2021;04:55:18;Stop          ;04.12.2018;FEY;;LION;49;14500;7200;192;4;88;90;8400;3000;4039;4039;1;12986;27.64;29.94;31,7;BCS1388054;1;12
009700;12.01.2021;05:21:33;Cycle         ;04.12.2018;FEY;;LION;49;14500;7200;192;4;88;90;8400;3000;4059;4059;1;12988;26.94;27.24;30,6;BCS1388054;1;12
009700;13.01.2021;08:18:34;Stop          ;04.12.2018;FEY;;LION;49;14500;7200;224;6;97;100;8400;;4152;4152;1;12987;26.44;27.24;30,7;BCS1388054;1;12
009700;06.04.2021;08:39:21;Normalcharge  ;04.12.2018;FEY;;LION;49;14500;7200;192;6;91;94;8400;3000;4077;4077;1;13028;21.34;24.64;28,1;BCS1388054;7;6
009700;06.04.2021;08:40:08;Stop          ;04.12.2018;FEY;;LION;49;14500;7200;128;6;91;94;8400;3000;4135;4111;1;12950;21.34;26.04;28,5;BCS1388054;7;6
009700;08.04.2021;07:59:03;Normalcharge  ;04.12.2018;FEY;;LION;49;14500;7200;192;6;91;94;8400;3000;4077;4077;1;13030;25.14;24.74;26,4;BCS1388054;7;6
009700;08.04.2021;07:59:16;Stop          ;04.12.2018;FEY;;LION;49;14500;7200;192;6;91;94;8400;3000;4077;4077;1;13025;25.14;24.94;26,6;BCS1388054;7;6
009700;08.04.2021;10:36:43;Normalcharge  ;04.12.2018;FEY;;LION;49;14500;7200;192;6;91;94;8400;3000;4077;4077;1;13027;25.34;25.34;28,9;BCS1388054;7;6
009700;08.04.2021;10:37:15;Stop          ;04.12.2018;FEY;;LION;49;14500;7200;128;6;91;94;8400;3000;4119;4098;1;12965;25.34;26.34;29,2;BCS1388054;7;6
009700;18.04.2021;08:34:46;Normalcharge  ;04.12.2018;FEY;;LION;49;14500;7200;192;6;90;93;8400;3000;4074;4074;1;13026;26.04;26.04;28,2;BCS1388054;7;6
009700;18.04.2021;08:34:54;Stop          ;04.12.2018;FEY;;LION;49;14500;7200;192;6;90;93;8400;3000;4074;4074;1;13024;26.04;26.14;28,4;BCS1388054;7;6
009700;04.08.2021;07:24:29;Normalcharge  ;04.12.2018;FEY;;LION;49;14500;7200;192;6;89;93;8400;3000;4038;4038;1;13022;30.04;29.84;31,5;BCS1388054;7;6
009700;04.08.2021;07:25:08;Stop          ;04.12.2018;FEY;;LION;49;14500;7200;128;6;89;93;8400;3000;4067;4052;1;12970;30.04;31.14;31,6;BCS1388054;7;6
009700;25.08.2021;08:15:19;Charge to 60% ;04.12.2018;FEY;;LION;49;14500;7200;192;6;89;93;8400;3000;4031;4031;1;12986;30.34;31.94;33,5;BCS1388054;2;14
009700;25.08.2021;10:43:17;Stop          ;04.12.2018;FEY;;LION;49;14500;7200;192;6;57;60;8400;3000;3716;3715;1;12984;34.24;40.84;36,4;BCS1388054;2;14
009700;01.11.2021;09:51:47;Normalcharge  ;04.12.2018;FEY;;LION;49;14500;7200;192;6;52;55;8400;3000;3708;3707;1;13028;25.94;25.24;26,3;BCS1388054;7;4
009700;01.11.2021;09:53:50;Stop          ;04.12.2018;FEY;;LION;49;14500;7200;128;6;53;56;8400;3000;3805;3755;1;12685;26.04;30.04;27,4;BCS1388054;7;4
009700;01.11.2021;10:02:29;Normalcharge  ;04.12.2018;FEY;;LION;49;14500;7200;192;6;53;56;8400;3000;3713;3712;1;13025;26.14;27.54;29,5;BCS1388054;7;4
009700;01.11.2021;10:03:04;Stop          ;04.12.2018;FEY;;LION;49;14500;7200;128;6;53;56;8400;3000;3775;3738;1;12733;26.14;28.84;29,3;BCS1388054;7;4
009700;01.11.2021;10:27:23;Normalcharge  ;04.12.2018;FEY;;LION;49;14500;7200;192;6;53;56;8400;3000;3714;3713;1;13026;26.34;26.44;27,7;BCS1388054;7;4
009700;01.11.2021;10:29:22;Stop          ;04.12.2018;FEY;;LION;49;14500;7200;128;6;53;56;8400;3000;3808;3759;1;12674;26.34;30.74;28,6;BCS1388054;7;4