File: reader/Batterieverzeichnis/009737.txt
Serialnumber ; Date ; Time ; Action ; Date of Manufacture ; Manufacturer ; Battery Name ; Device-Chemistry ; Specification-Info ; Design-Capacity [mAh] ; Design-Voltage [mV] ; Battery Status ; Cycle Count ; SOC [%] ; Relativ SOC[%] ; Desired Voltage [mV]; Desired Current [mA]; Cell Voltage 1 [mV] ; Cell Voltage 2 [mV] ; Max_Error [%] ; Busvoltage[mV] ; Battery Temperature [°C] ; Charger Temperature [°C] ; Batterysystem ; Case ; PLace
009737;07.12.2020;04:14:21;Cycle         ;04.12.2018;FEY;;LION;49;14500;7200;224;2;97;99;8400;;4141;4140;1;13003;25.84;27.94;30,3;BCS1388054;2;5
009737;08.12.2020;16:19:44;Stop          ;04.12.2018;FEY;;LION;49;14500;7200;224;3;98;100;8400;;4152;4154;1;13004;27.84;29.34;31,9;BCS1388054;2;5
009737;03.03.2021;08:17:29;Normalcharge  ;04.12.2018;FEY;;LION;49;14500;7200;192;4;82;85;8400;3000;3976;3977;1;13020;23.24;22.54;23,5;BCS1388054;4;18
009737;03.03.2021;10:32:46;Stop          ;04.12.2018;FEY;;LION;49;14500;7200;224;4;98;100;8400;;4164;4164;1;13014;28.24;28.94;32,0;BCS1388054;4;18
009737;04.04.2021;11:50:22;Normalcharge  ;04.12.2018;FEY;;LION;49;14500;7200;192;4;53;55;8400;3000;3692;3693;1;13017;25.24;25.04;27,9;BCS1388054;4;18
009737;04.04.2021;11:51:36;Stop          ;04.12.2018;FEY;;LION;49;14500;7200;128;4;53;55;8400;3000;3780;3732;1;12711;25.24;28.04;28,6;BCS1388054;4;18
009737;05.04.2021;09:38:00;Ladung auf 60% ;04.12.2018;FEY;;LION;49;14500;7200;192;4;53;55;8400;3000;3694;3695;1;13007;25.14;25.34;26,3;BCS1388054;3;4
009737;05.04.2021;10:06:07;Stop           ;04.12.2018;FEY;;LION;49;14500;7200;192;4;58;60;8400;3000;3756;3758;1;13004;27.24;28.14;31,4;BCS1388054;3;4
009737;22.08.2021;11:08:19;Normalcharge  ;04.12.2018;FEY;;LION;49;14500;7200;192;4;53;55;8400;3000;3699;3700;1;13021;29.94;30.14;32,2;BCS1388054;7;13
009737;22.08.2021;11:08:51;Stop          ;04.12.2018;FEY;;LION;49;14500;7200;128;4;53;55;8400;3000;3729;3713;1;12864;29.94;31.34;32,6;BCS1388054;7;13
009737;25.08.2021;08:15:15;Ladung auf 60% ;04.12.2018;FEY;;LION;49;14500;7200;192;4;53;55;8400;3000;3699;3700;1;12997;30.54;31.44;33,4;BCS1388054;3;12
009737;25.08.2021;08:40:44;Stop           ;04.12.2018;FEY;;LION;49;14500;7200;192;4;58;60;8400;3000;3752;3754;1;12997;32.34;33.54;36,1;BCS1388054;3;12
009737;01.11.2021;09:52:00;Normalcharge  ;04.12.2018;FEY;;LION;49;14500;7200;192;4;55;57;8400;3000;3717;3718;1;13015;25.94;27.04;26,3;BCS1388054;5;5
009737;01.11.2021;09:53:40;Stop          ;04.12.2018;FEY;;LION;49;14500;7200;128;4;55;57;8400;3000;3811;3764;1;12597;25.94;30.34;27,3;BCS1388054;5;5
009737;01.11.2021;10:02:19;Normalcharge  ;04.12.2018;FEY;;LION;49;14500;7200;192;4;55;57;8400;3000;3722;3722;1;13010;26.14;28.44;29,5;BCS1388054;5;5
009737;01.11.2021;10:03:11;Stop          ;04.12.2018;FEY;;LION;49;14500;7200;128;4;55;57;8400;3000;3810;3762;1;12594;26.14;30.34;29,3;BCS1388054;5;5
009737;01.11.2021;10:27:35;Normalcharge  ;04.12.2018;FEY;;LION;49;14500;7200;192;4;55;57;8400;3000;3723;3724;1;13016;26.34;27.74;27,8;BCS1388054;5;5
009737;01.11.2021;10:29:14;Stop          ;04.12.2018;FEY;;LION;49;14500;7200;128;4;56;58;8400;3000;3818;3769;1;12599;26.44;31.04;28,6;BCS1388054;5;5
009737;01.11.2021;10:32:33;Charge to 60% ;04.12.2018;FEY;;LION;49;14500;7200;192;4;56;58;8400;3000;3728;3729;1;13009;26.44;28.94;29,9;BCS1388054;5;5
009737;01.11.2021;11:11:47;Stop          ;04.12.2018;FEY;;LION;49;14500;7200;192;4;58;60;8400;3000;3752;3753;1;13010;27.74;30.04;32,5;BCS1388054;5;5
009737;07.02.2022;08:50:57;Normalcharge  ;04.12.2018;FEY;;LION;49;14500;7200;192;4;55;57;8400;3000;3712;3712;1;13020;22.34;22.54;25,1;BCS1388054;4;4
009737;07.02.2022;13:19:09;Stop          ;04.12.2018;FEY;;LION;49;14500;7200;224;4;97;100;8400;;4161;4161;1;13016;27.24;27.04;29,7;BCS1388054;4;4
009737;14.03.2022;12:14:21;Normalcharge  ;04.12.2018;FEY;;LION;49;14500;7200;192;5;67;69;8400;3000;3848;3849;1;12990;24.24;25.74;27,5;BCS1388054;6;13
009737;14.03.2022;12:18:18;Stop          ;04.12.2018;FEY;;LION;49;14500;7200;128;5;68;70;8400;3000;3950;3904;1;12799;24.44;32.44;29,3;BCS1388054;6;13
009737;29.03.2022;08:20:58;Normalcharge  ;04.12.2018;FEY;;LION;49;14500;7200;192;5;53;55;8400;3000;3692;3693;1;13012;24.94;25.14;25,7;BCS1388054;4;1
009737;29.03.2022;08:21:35;Stop          ;04.12.2018;FEY;;LION;49;14500;7200;128;5;53;55;8400;3000;3726;3709;1;12756;24.94;26.54;26,0;BCS1388054;4;1
009737;29.03.2022;08:22:11;Normalcharge  ;04.12.2018;FEY;;LION;49;14500;7200;128;5;53;55;8400;3000;3693;3697;1;13011;24.94;26.44;26,3;BCS1388054;4;1
009737;29.03.2022;08:22:29;Stop          ;04.12.2018;FEY;;LION;49;14500;7200;128;5;53;55;8400;3000;3713;3705;1;12922;24.94;26.94;26,4;BCS1388054;4;1