File: reader/Batterieverzeichnis/009781.txt
Serialnumber ; Date ; Time ; Action ; Date of Manufacture ; Manufacturer ; Battery Name ; Device-Chemistry ; Specification-Info ; Design-Capacity [mAh] ; Design-Voltage [mV] ; Battery Status ; Cycle Count ; SOC [%] ; Relativ SOC[%] ; Desired Voltage [mV]; Desired Current [mA]; Cell Voltage 1 [mV] ; Cell Voltage 2 [mV] ; Max_Error [%] ; Busvoltage[mV] ; Battery Temperature [°C] ; Charger Temperature [°C] ; Batterysystem ; Case ; PLace
009781;12.01.2021;04:17:28;Ladung auf 90% ;04.12.2018;FEY;;LION;49;14500;7200;16576;2;96;99;;;4133;4132;1;13006;23.04;22.64;23,6;BCS1388054;3;16
009781;12.01.2021;04:57:30;Stop           ;04.12.2018;FEY;;LION;49;14500;7200;192;2;83;90;8400;3000;4031;4029;1;13002;27.04;32.24;31,5;BCS1388054;3;16
009781;12.01.2021;05:21:45;Cycle          ;04.12.2018;FEY;;LION;49;14500;7200;192;2;83;90;8400;3000;4050;4049;1;13003;27.24;27.34;30,4;BCS1388054;3;16
009781;13.01.2021;08:23:25;Stop           ;04.12.2018;FEY;;LION;49;14500;7200;224;3;96;100;8400;;4156;4157;1;13002;27.14;27.34;31,4;BCS1388054;3;16
009781;22.02.2021;17:31:59;Normalcharge  ;04.12.2018;FEY;;LION;49;14500;7200;192;3;72;74;8400;3000;3891;3892;1;13002;26.34;27.54;31,6;BCS1388054;2;2
009781;22.02.2021;21:53:27;Stop          ;04.12.2018;FEY;;LION;49;14500;7200;224;3;98;100;8400;;4154;4154;1;13002;26.84;29.04;31,7;BCS1388054;2;2
009781;06.04.2021;08:39:03;Normalcharge  ;04.12.2018;FEY;;LION;49;14500;7200;224;3;96;99;8400;;4129;4128;1;13007;21.34;25.64;28,1;BCS1388054;4;7
009781;06.04.2021;08:39:53;Stop          ;04.12.2018;FEY;;LION;49;14500;7200;224;3;96;99;8400;;4129;4128;1;13005;21.34;25.94;28,4;BCS1388054;4;7
009781;08.04.2021;07:58:12;Normalcharge  ;04.12.2018;FEY;;LION;49;14500;7200;224;3;96;99;8400;;4128;4128;1;13007;25.24;24.54;26,3;BCS1388054;4;7
009781;08.04.2021;07:59:34;Stop          ;04.12.2018;FEY;;LION;49;14500;7200;224;3;96;99;8400;;4128;4128;1;12978;25.24;26.44;26,7;BCS1388054;4;7
009781;08.04.2021;10:36:07;Normalcharge  ;04.12.2018;FEY;;LION;49;14500;7200;224;3;96;99;8400;;4128;4128;1;13006;25.44;26.64;28,5;BCS1388054;4;7
009781;08.04.2021;10:37:03;Stop          ;04.12.2018;FEY;;LION;49;14500;7200;224;3;96;99;8400;;4128;4128;1;12973;25.44;27.04;29,0;BCS1388054;4;7
009781;18.04.2021;08:34:04;Normalcharge  ;04.12.2018;FEY;;LION;49;14500;7200;224;3;96;99;8400;;4125;4124;1;13005;26.14;27.44;27,9;BCS1388054;4;7
009781;18.04.2021;08:34:10;Stop          ;04.12.2018;FEY;;LION;49;14500;7200;224;3;96;99;8400;;4125;4124;1;13005;26.14;27.44;28,1;BCS1388054;4;7
009781;04.08.2021;07:24:46;Normalcharge  ;04.12.2018;FEY;;LION;49;14500;7200;192;3;93;96;8400;;4093;4092;1;13002;30.24;31.34;31,5;BCS1388054;4;7
009781;04.08.2021;07:25:30;Stop          ;04.12.2018;FEY;;LION;49;14500;7200;192;3;93;96;8400;;4093;4092;1;12970;30.24;31.74;31,7;BCS1388054;4;7
009781;22.08.2021;11:08:05;Normalcharge  ;04.12.2018;FEY;;LION;49;14500;7200;192;3;88;93;8400;3000;4064;4064;1;12997;22.84;29.84;32,1;BCS1388054;4;6
009781;22.08.2021;11:08:37;Stop          ;04.12.2018;FEY;;LION;49;14500;7200;128;3;88;93;8400;3000;4103;4086;1;12686;22.94;30.74;32,5;BCS1388054;4;6
009781;14.10.2021;12:39:51;Normalcharge  ;04.12.2018;FEY;;LION;49;14500;7200;192;3;86;89;8400;3000;4025;4025;1;13002;25.14;27.14;27,9;BCS1388054;1;3
009781;14.10.2021;12:41:14;Stop          ;04.12.2018;FEY;;LION;49;14500;7200;128;3;87;89;8400;3000;4107;4070;1;12487;25.24;30.54;28,2;BCS1388054;1;3
009781;28.12.2021;09:01:33;Normalcharge  ;04.12.2018;FEY;;LION;49;14500;7200;192;3;69;73;8400;3000;3868;3868;1;13006;23.84;23.64;25,4;BCS1388054;5;10
009781;28.12.2021;09:02:46;Stop          ;04.12.2018;FEY;;LION;49;14500;7200;128;3;69;73;8400;3000;3962;3915;1;12662;23.84;26.34;26,0;BCS1388054;5;10
009781;07.02.2022;08:50:47;Normalcharge  ;04.12.2018;FEY;;LION;49;14500;7200;192;3;69;73;8400;3000;3860;3861;1;13015;22.44;22.34;25,0;BCS1388054;6;3
009781;13.02.2022;10:58:25;Normalcharge  ;04.12.2018;FEY;;LION;49;14500;7200;224;3;96;100;8400;;4141;4140;1;13010;22.64;22.54;26,1;BCS1388054;3;10
009781;13.02.2022;17:19:51;Stop           ;04.12.2018;FEY;;LION;49;14500;7200;224;3;96;100;8400;;4141;4141;1;13003;25.04;26.14;29,0;BCS1388054;3;10
009781;14.03.2022;12:14:16;Normalcharge  ;04.12.2018;FEY;;LION;49;14500;7200;192;3;91;95;8400;3000;4090;4089;1;13021;24.14;24.94;27,4;BCS1388054;7;7
009781;14.03.2022;12:18:09;Stop          ;04.12.2018;FEY;;LION;49;14500;7200;128;3;91;96;8400;3000;4164;4140;1;12808;24.24;28.94;29,3;BCS1388054;7;7