File: reader/Batterieverzeichnis/009773.txt
Serialnumber ; Date ; Time ; Action ; Date of Manufacture ; Manufacturer ; Battery Name ; Device-Chemistry ; Specification-Info ; Design-Capacity [mAh] ; Design-Voltage [mV] ; Battery Status ; Cycle Count ; SOC [%] ; Relativ SOC[%] ; Desired Voltage [mV]; Desired Current [mA]; Cell Voltage 1 [mV] ; Cell Voltage 2 [mV] ; Max_Error [%] ; Busvoltage[mV] ; Battery Temperature [°C] ; Charger Temperature [°C] ; Batterysystem ; Case ; PLace
009773;12.01.2021;04:16:00;Charge to 90% ;04.12.2018;FEY;;LION;49;14500;7200;16576;1;88;97;;;4134;4134;1;13005;23.04;21.64;23,0;BCS1388054;1;10
009773;12.01.2021;04:16:03;Stop          ;04.12.2018;FEY;;LION;49;14500;7200;16576;1;88;97;;;4134;4134;1;13006;23.04;22.34;23,0;BCS1388054;1;10
009773;12.01.2021;04:17:15;Charge to 90% ;04.12.2018;FEY;;LION;49;14500;7200;16576;1;88;97;;;4135;4134;1;13005;23.04;22.84;23,5;BCS1388054;1;10
009773;12.01.2021;04:55:18;Stop          ;04.12.2018;FEY;;LION;49;14500;7200;192;2;83;90;8400;3000;4068;4067;1;12998;26.54;28.64;31,7;BCS1388054;1;10
009773;12.01.2021;05:21:33;Cycle         ;04.12.2018;FEY;;LION;49;14500;7200;192;2;83;90;8400;3000;4073;4072;1;12999;26.64;26.74;30,6;BCS1388054;1;10
009773;13.01.2021;08:18:34;Stop          ;04.12.2018;FEY;;LION;49;14500;7200;224;3;95;100;8400;;4155;4155;1;12998;26.54;26.64;30,7;BCS1388054;1;10
009773;21.02.2021;13:45:29;Normalcharge  ;04.12.2018;FEY;;LION;49;14500;7200;192;3;51;54;8400;3000;3686;3687;1;12995;22.74;23.94;27,8;BCS1388054;6;13
009773;06.04.2021;08:38:46;Normalcharge  ;04.12.2018;FEY;;LION;49;14500;7200;224;3;94;99;8400;;4128;4127;1;13012;20.34;25.84;28,1;BCS1388054;2;3
009773;06.04.2021;08:39:36;Stop          ;04.12.2018;FEY;;LION;49;14500;7200;224;3;94;99;8400;;4128;4128;1;13009;20.44;26.34;28,2;BCS1388054;2;3
009773;08.04.2021;07:57:57;Normalcharge  ;04.12.2018;FEY;;LION;49;14500;7200;224;3;94;99;8400;;4127;4127;1;13011;25.24;25.84;26,3;BCS1388054;2;3
009773;08.04.2021;07:59:45;Stop          ;04.12.2018;FEY;;LION;49;14500;7200;224;3;94;99;8400;;4127;4127;1;13009;25.24;27.14;26,8;BCS1388054;2;3
009773;08.04.2021;10:35:00;Normalcharge  ;04.12.2018;FEY;;LION;49;14500;7200;224;3;94;99;8400;;4127;4127;1;13011;25.64;26.34;28,1;BCS1388054;2;3
009773;08.04.2021;10:36:53;Stop          ;04.12.2018;FEY;;LION;49;14500;7200;224;3;94;99;8400;;4127;4127;1;13008;25.64;27.64;28,9;BCS1388054;2;3
009773;18.04.2021;08:33:36;Normalcharge  ;04.12.2018;FEY;;LION;49;14500;7200;224;3;94;99;8400;;4123;4123;1;13010;26.14;27.54;27,7;BCS1388054;2;3
009773;18.04.2021;08:33:44;Stop          ;04.12.2018;FEY;;LION;49;14500;7200;224;3;94;99;8400;;4124;4123;1;13010;26.14;27.54;27,8;BCS1388054;2;3
009773;04.08.2021;07:24:55;Normalcharge  ;04.12.2018;FEY;;LION;49;14500;7200;192;3;92;96;8400;;4092;4091;1;13001;30.44;31.84;31,5;BCS1388054;2;3
009773;04.08.2021;07:25:47;Stop          ;04.12.2018;FEY;;LION;49;14500;7200;192;3;92;96;8400;;4091;4091;1;13000;30.44;32.44;31,9;BCS1388054;2;3
009773;22.08.2021;11:08:04;Normalcharge  ;04.12.2018;FEY;;LION;49;14500;7200;2768;5;;;8400;3000;3107;3109;1;13003;22.84;30.14;32,1;BCS1388054;4;1
009773;22.08.2021;11:08:37;Stop          ;04.12.2018;FEY;;LION;49;14500;7200;144;5;;;8400;3000;3148;3139;1;12719;22.94;30.94;32,5;BCS1388054;4;1