File: reader/Batterieverzeichnis/009813.txt
Serialnumber ; Date ; Time ; Action ; Date of Manufacture ; Manufacturer ; Battery Name ; Device-Chemistry ; Specification-Info ; Design-Capacity [mAh] ; Design-Voltage [mV] ; Battery Status ; Cycle Count ; SOC [%] ; Relativ SOC[%] ; Desired Voltage [mV]; Desired Current [mA]; Cell Voltage 1 [mV] ; Cell Voltage 2 [mV] ; Max_Error [%] ; Busvoltage[mV] ; Battery Temperature [°C] ; Charger Temperature [°C] ; Batterysystem ; Case ; PLace
009813;07.02.2021;08:46:53;Normalcharge  ;03.12.2018;FEY;;LION;49;14500;7200;192;4;95;96;8400;;4118;4117;1;13005;23.34;24.94;29,2;BCS1388054;3;4
009813;07.02.2021;11:52:16;Stop           ;03.12.2018;FEY;;LION;49;14500;7200;192;4;95;96;8400;;4118;4116;1;13005;25.64;26.24;29,7;BCS1388054;3;4
009813;03.03.2021;08:17:40;Normalcharge  ;03.12.2018;FEY;;LION;49;14500;7200;192;4;72;73;8400;3000;3881;3881;1;13008;22.94;23.14;23,6;BCS1388054;6;1
009813;03.03.2021;11:56:52;Stop          ;03.12.2018;FEY;;LION;49;14500;7200;224;4;99;100;8400;;4156;4155;1;13003;27.54;29.14;31,7;BCS1388054;6;1
009813;06.04.2021;08:38:40;Normalcharge  ;03.12.2018;FEY;;LION;49;14500;7200;224;4;97;99;8400;;4132;4131;1;12996;20.84;25.04;28,1;BCS1388054;1;1
009813;06.04.2021;08:39:29;Stop          ;03.12.2018;FEY;;LION;49;14500;7200;224;4;97;99;8400;;4133;4131;1;12995;20.94;25.74;28,2;BCS1388054;1;1
009813;08.04.2021;07:57:52;Normalcharge  ;03.12.2018;FEY;;LION;49;14500;7200;224;4;97;99;8400;;4132;4131;1;12997;24.94;25.04;26,3;BCS1388054;1;1
009813;08.04.2021;07:59:50;Stop          ;03.12.2018;FEY;;LION;49;14500;7200;224;4;97;99;8400;;4132;4131;1;12943;24.94;26.34;26,8;BCS1388054;1;1
009813;08.04.2021;10:34:34;Normalcharge  ;03.12.2018;FEY;;LION;49;14500;7200;224;4;97;99;8400;;4132;4131;1;12992;25.94;27.84;28,1;BCS1388054;1;1
009813;08.04.2021;10:36:49;Stop          ;03.12.2018;FEY;;LION;49;14500;7200;224;4;97;99;8400;;4132;4131;1;12882;25.94;28.04;28,9;BCS1388054;1;1
009813;18.04.2021;08:33:24;Normalcharge  ;03.12.2018;FEY;;LION;49;14500;7200;224;4;97;99;8400;;4128;4127;1;12995;25.94;26.64;27,7;BCS1388054;1;1
009813;18.04.2021;08:33:29;Stop          ;03.12.2018;FEY;;LION;49;14500;7200;224;4;97;99;8400;;4128;4127;1;12992;25.94;26.64;27,7;BCS1388054;1;1
009813;04.08.2021;07:25:01;Normalcharge  ;03.12.2018;FEY;;LION;49;14500;7200;192;4;94;96;8400;;4096;4095;1;12989;30.34;31.24;31,5;BCS1388054;1;1
009813;04.08.2021;07:25:57;Stop          ;03.12.2018;FEY;;LION;49;14500;7200;192;4;94;96;8400;;4096;4095;1;12788;30.34;31.84;31,9;BCS1388054;1;1
009813;22.08.2021;11:08:05;Normalcharge  ;03.12.2018;FEY;;LION;49;14500;7200;192;5;67;69;8400;3000;3843;3843;1;12996;22.24;29.34;32,1;BCS1388054;4;15
009813;22.08.2021;11:08:38;Stop          ;03.12.2018;FEY;;LION;49;14500;7200;128;5;67;69;8400;3000;3905;3872;1;12660;22.34;30.54;32,5;BCS1388054;4;15