File: reader/Batterieverzeichnis/009834.txt
Serialnumber ; Date ; Time ; Action ; Date of Manufacture ; Manufacturer ; Battery Name ; Device-Chemistry ; Specification-Info ; Design-Capacity [mAh] ; Design-Voltage [mV] ; Battery Status ; Cycle Count ; SOC [%] ; Relativ SOC[%] ; Desired Voltage [mV]; Desired Current [mA]; Cell Voltage 1 [mV] ; Cell Voltage 2 [mV] ; Max_Error [%] ; Busvoltage[mV] ; Battery Temperature [°C] ; Charger Temperature [°C] ; Batterysystem ; Case ; PLace
009834;07.02.2021;08:46:53;Normalcharge  ;03.12.2018;FEY;;LION;49;14500;7200;16576;3;93;96;;;4108;4107;1;12999;23.34;24.64;29,2;BCS1388054;3;6
009834;07.02.2021;11:52:16;Stop           ;03.12.2018;FEY;;LION;49;14500;7200;16576;3;93;96;;;4108;4107;1;12999;25.44;25.64;29,7;BCS1388054;3;6
009834;03.03.2021;08:17:29;Normalcharge  ;03.12.2018;FEY;;LION;49;14500;7200;192;3;86;88;8400;3000;4034;4033;1;13012;22.84;23.04;23,5;BCS1388054;4;8
009834;03.03.2021;10:32:46;Stop          ;03.12.2018;FEY;;LION;49;14500;7200;224;3;98;100;8400;;4156;4155;1;13003;28.04;29.24;32,0;BCS1388054;4;8
009834;04.04.2021;11:50:02;Normalcharge  ;03.12.2018;FEY;;LION;49;14500;7200;192;4;59;62;8400;3000;3769;3769;1;13016;24.44;26.44;27,7;BCS1388054;6;15
009834;04.04.2021;11:51:24;Stop          ;03.12.2018;FEY;;LION;49;14500;7200;128;4;60;62;8400;3000;3860;3813;1;12667;24.54;29.64;28,5;BCS1388054;6;15
009834;05.04.2021;09:37:37;Charge to 60% ;03.12.2018;FEY;;LION;49;14500;7200;192;4;60;62;8400;3000;3773;3772;1;12993;24.74;26.34;26,0;BCS1388054;1;2
009834;05.04.2021;10:01:53;Stop          ;03.12.2018;FEY;;LION;49;14500;7200;192;4;58;60;8400;3000;3735;3734;1;12990;25.64;29.44;31,2;BCS1388054;1;2
009834;22.08.2021;11:37:25;Normalcharge  ;03.12.2018;FEY;;LION;49;14500;7200;192;4;36;37;8400;3000;3576;3575;1;13004;21.14;28.24;31,9;BCS1388054;4;1
009834;22.08.2021;11:38:13;Stop          ;03.12.2018;FEY;;LION;49;14500;7200;128;4;36;37;8400;3000;3655;3610;1;12655;21.24;30.44;32,1;BCS1388054;4;1
009834;25.08.2021;08:15:08;Charge to 60% ;03.12.2018;FEY;;LION;49;14500;7200;192;4;35;36;8400;3000;3580;3579;1;13001;30.04;32.44;33,4;BCS1388054;4;1
009834;25.08.2021;12:59:17;Stop          ;03.12.2018;FEY;;LION;49;14500;7200;192;4;57;60;8400;3000;3724;3723;1;13002;32.34;34.84;36,6;BCS1388054;4;1
009834;01.11.2021;09:52:21;Normalcharge  ;03.12.2018;FEY;;LION;49;14500;7200;192;4;52;55;8400;3000;3697;3696;1;13000;25.54;26.24;26,4;BCS1388054;1;18
009834;01.11.2021;09:53:14;Stop          ;03.12.2018;FEY;;LION;49;14500;7200;128;4;52;55;8400;3000;3783;3732;1;12444;25.54;28.64;26,8;BCS1388054;1;18
009834;01.11.2021;10:01:59;Normalcharge  ;03.12.2018;FEY;;LION;49;14500;7200;192;4;52;55;8400;3000;3699;3698;1;12993;25.74;27.44;29,5;BCS1388054;1;18
009834;01.11.2021;10:03:29;Stop          ;03.12.2018;FEY;;LION;49;14500;7200;128;4;53;55;8400;3000;3790;3740;1;12437;25.84;30.64;29,3;BCS1388054;1;18
009834;01.11.2021;10:27:58;Normalcharge  ;03.12.2018;FEY;;LION;49;14500;7200;192;4;53;55;8400;3000;3702;3701;1;12996;26.04;26.84;27,8;BCS1388054;1;18
009834;01.11.2021;10:28:31;Stop          ;03.12.2018;FEY;;LION;49;14500;7200;128;4;53;55;8400;3000;3755;3724;1;12613;26.04;28.24;28,1;BCS1388054;1;18
009834;01.11.2021;10:31:48;Charge to 60% ;03.12.2018;FEY;;LION;49;14500;7200;192;4;53;55;8400;3000;3703;3701;1;12995;26.04;22.04;29,9;BCS1388054;1;18
009834;01.11.2021;11:39:51;Stop          ;03.12.2018;FEY;;LION;49;14500;7200;192;4;57;60;8400;3000;3752;3751;1;12993;27.34;28.84;32,5;BCS1388054;1;18
009834;07.02.2022;08:50:47;Normalcharge  ;03.12.2018;FEY;;LION;49;14500;7200;192;4;54;56;8400;3000;3711;3710;1;13005;21.84;21.74;25,0;BCS1388054;6;1
009834;13.02.2022;10:58:25;Normalcharge  ;03.12.2018;FEY;;LION;49;14500;7200;224;4;96;100;8400;;4145;4146;1;12998;22.24;22.84;26,1;BCS1388054;3;8
009834;13.02.2022;17:19:51;Stop           ;03.12.2018;FEY;;LION;49;14500;7200;224;4;95;100;8400;;4145;4146;1;12991;24.84;26.94;29,0;BCS1388054;3;8