File: reader/Batterieverzeichnis/009802.txt
Serialnumber ; Date ; Time ; Action ; Date of Manufacture ; Manufacturer ; Battery Name ; Device-Chemistry ; Specification-Info ; Design-Capacity [mAh] ; Design-Voltage [mV] ; Battery Status ; Cycle Count ; SOC [%] ; Relativ SOC[%] ; Desired Voltage [mV]; Desired Current [mA]; Cell Voltage 1 [mV] ; Cell Voltage 2 [mV] ; Max_Error [%] ; Busvoltage[mV] ; Battery Temperature [°C] ; Charger Temperature [°C] ; Batterysystem ; Case ; PLace
009802;07.02.2021;08:46:48;Normalcharge  ;03.12.2018;FEY;;LION;49;14500;7200;192;3;96;97;8400;;4114;4115;1;13003;23.04;26.84;29,2;BCS1388054;2;3
009802;07.02.2021;11:52:12;Stop          ;03.12.2018;FEY;;LION;49;14500;7200;192;3;96;97;8400;;4114;4115;1;13005;25.24;28.24;29,7;BCS1388054;2;3
009802;03.03.2021;08:17:46;Normalcharge  ;03.12.2018;FEY;;LION;49;14500;7200;2768;4;;;8400;3000;3037;3061;1;13030;22.54;23.14;23,6;BCS1388054;7;18
009802;03.03.2021;10:54:05;Stop          ;03.12.2018;FEY;;LION;49;14500;7200;128;4;30;32;8400;3000;3677;3627;1;12690;28.74;36.34;31,4;BCS1388054;7;18
009802;09.03.2021;08:06:57;Normalcharge  ;03.12.2018;FEY;;LION;49;14500;7200;192;4;34;35;8400;3000;3582;3583;1;12997;22.64;23.44;23,9;BCS1388054;1;1
009802;09.03.2021;08:07:09;Stop          ;03.12.2018;FEY;;LION;49;14500;7200;192;4;34;35;8400;3000;3582;3583;1;12998;22.64;23.54;24,1;BCS1388054;1;1
009802;06.04.2021;08:39:21;Normalcharge  ;03.12.2018;FEY;;LION;49;14500;7200;192;4;75;77;8400;3000;3897;3897;1;13022;20.44;25.34;28,1;BCS1388054;7;10
009802;06.04.2021;08:40:08;Stop          ;03.12.2018;FEY;;LION;49;14500;7200;128;4;75;77;8400;3000;3962;3928;1;12936;20.54;27.14;28,5;BCS1388054;7;10
009802;08.04.2021;07:59:03;Normalcharge  ;03.12.2018;FEY;;LION;49;14500;7200;192;4;75;77;8400;3000;3897;3897;1;13022;24.54;25.64;26,4;BCS1388054;7;10
009802;08.04.2021;07:59:16;Stop          ;03.12.2018;FEY;;LION;49;14500;7200;192;4;75;77;8400;3000;3897;3897;1;13021;24.54;25.94;26,6;BCS1388054;7;10
009802;08.04.2021;10:36:43;Normalcharge  ;03.12.2018;FEY;;LION;49;14500;7200;192;4;75;77;8400;3000;3897;3897;1;13020;24.74;26.54;28,9;BCS1388054;7;10
009802;08.04.2021;10:37:15;Stop          ;03.12.2018;FEY;;LION;49;14500;7200;128;4;75;77;8400;3000;3933;3913;1;12952;24.74;27.64;29,2;BCS1388054;7;10
009802;18.04.2021;08:34:46;Normalcharge  ;03.12.2018;FEY;;LION;49;14500;7200;192;4;75;77;8400;3000;3895;3895;1;13020;25.44;27.24;28,2;BCS1388054;7;10
009802;18.04.2021;08:34:54;Stop          ;03.12.2018;FEY;;LION;49;14500;7200;192;4;75;77;8400;3000;3895;3895;1;13017;25.44;27.34;28,4;BCS1388054;7;10
009802;04.08.2021;07:24:29;Normalcharge  ;03.12.2018;FEY;;LION;49;14500;7200;192;4;75;77;8400;3000;3870;3871;1;13024;29.44;30.84;31,5;BCS1388054;7;10
009802;04.08.2021;07:25:08;Stop          ;03.12.2018;FEY;;LION;49;14500;7200;128;4;75;77;8400;3000;3894;3882;1;12978;29.44;32.14;31,6;BCS1388054;7;10