File: reader/Batterieverzeichnis/009844.txt
Serialnumber ; Date ; Time ; Action ; Date of Manufacture ; Manufacturer ; Battery Name ; Device-Chemistry ; Specification-Info ; Design-Capacity [mAh] ; Design-Voltage [mV] ; Battery Status ; Cycle Count ; SOC [%] ; Relativ SOC[%] ; Desired Voltage [mV]; Desired Current [mA]; Cell Voltage 1 [mV] ; Cell Voltage 2 [mV] ; Max_Error [%] ; Busvoltage[mV] ; Battery Temperature [°C] ; Charger Temperature [°C] ; Batterysystem ; Case ; PLace
009844;12.01.2021;04:17:47;Charge to 90% ;04.12.2018;FEY;;LION;49;14500;7200;224;5;96;99;8400;;4129;4129;1;13026;22.54;23.84;23,8;BCS1388054;7;17
009844;12.01.2021;04:57:20;Stop          ;04.12.2018;FEY;;LION;49;14500;7200;192;5;86;90;8400;3000;4036;4037;1;13021;26.44;32.14;31,5;BCS1388054;7;17
009844;12.01.2021;05:22:01;Cycle         ;04.12.2018;FEY;;LION;49;14500;7200;192;5;86;90;8400;3000;4049;4050;1;13021;26.24;27.64;30,4;BCS1388054;7;17
009844;13.01.2021;08:19:29;Stop          ;04.12.2018;FEY;;LION;49;14500;7200;224;6;95;100;8400;;4155;4155;1;13023;26.04;27.64;30,7;BCS1388054;7;17
009844;22.02.2021;17:31:46;Normalcharge  ;04.12.2018;FEY;;LION;49;14500;7200;192;7;46;49;8400;3000;3656;3657;1;13005;25.94;26.74;31,6;BCS1388054;1;7
009844;22.02.2021;23:06:28;Stop          ;04.12.2018;FEY;;LION;49;14500;7200;224;7;96;100;8400;;4155;4156;1;13007;26.34;27.64;30,6;BCS1388054;1;7
009844;04.04.2021;11:50:10;Normalcharge  ;04.12.2018;FEY;;LION;49;14500;7200;192;7;53;55;8400;3000;3694;3696;1;13003;24.54;25.24;27,8;BCS1388054;5;6
009844;04.04.2021;11:51:30;Stop          ;04.12.2018;FEY;;LION;49;14500;7200;128;7;54;55;8400;3000;3783;3737;1;12671;24.54;27.44;28,5;BCS1388054;5;6
009844;05.04.2021;09:37:46;Charge to 60% ;04.12.2018;FEY;;LION;49;14500;7200;192;7;53;55;8400;3000;3697;3699;1;13007;24.54;26.24;26,1;BCS1388054;2;8
009844;05.04.2021;10:03:48;Stop          ;04.12.2018;FEY;;LION;49;14500;7200;192;7;58;60;8400;3000;3756;3762;1;13002;26.54;29.94;31,4;BCS1388054;2;8
009844;22.08.2021;11:07:51;Normalcharge  ;04.12.2018;FEY;;LION;49;14500;7200;192;8;42;43;8400;3000;3610;3611;1;12980;22.14;31.04;32,0;BCS1388054;1;12
009844;22.08.2021;11:08:23;Stop          ;04.12.2018;FEY;;LION;49;14500;7200;128;8;42;43;8400;3000;3665;3636;1;12576;22.34;31.84;32,4;BCS1388054;1;12
009844;25.08.2021;08:14:57;Charge to 60% ;04.12.2018;FEY;;LION;49;14500;7200;192;8;42;43;8400;3000;3612;3613;1;12990;29.84;32.44;33,2;BCS1388054;6;14
009844;25.08.2021;09:50:39;Stop          ;04.12.2018;FEY;;LION;49;14500;7200;192;8;58;60;8400;3000;3737;3740;1;12991;34.24;36.34;36,4;BCS1388054;6;14
009844;01.11.2021;10:18:21;Normalcharge  ;04.12.2018;FEY;;LION;49;14500;7200;192;8;54;56;8400;3000;3706;3707;1;13011;25.14;27.34;28,4;BCS1388054;4;10
009844;01.11.2021;10:19:03;Stop          ;04.12.2018;FEY;;LION;49;14500;7200;128;8;54;56;8400;3000;3789;3744;1;12574;25.24;29.24;28,2;BCS1388054;4;10
009844;01.11.2021;10:28:22;Normalcharge  ;04.12.2018;FEY;;LION;49;14500;7200;192;8;54;56;8400;3000;3707;3708;1;13010;25.34;27.64;27,9;BCS1388054;4;10
009844;01.11.2021;10:29:09;Stop          ;04.12.2018;FEY;;LION;49;14500;7200;128;8;54;56;8400;3000;3792;3745;1;12575;25.34;29.64;28,5;BCS1388054;4;10