File: reader/Batterieverzeichnis/009803.txt
Serialnumber ; Date ; Time ; Action ; Date of Manufacture ; Manufacturer ; Battery Name ; Device-Chemistry ; Specification-Info ; Design-Capacity [mAh] ; Design-Voltage [mV] ; Battery Status ; Cycle Count ; SOC [%] ; Relativ SOC[%] ; Desired Voltage [mV]; Desired Current [mA]; Cell Voltage 1 [mV] ; Cell Voltage 2 [mV] ; Max_Error [%] ; Busvoltage[mV] ; Battery Temperature [°C] ; Charger Temperature [°C] ; Batterysystem ; Case ; PLace
009803;24.11.2020;08:59:34;Stop          ;03.12.2018;FEY;;LION;49;14500;7200;192;1;80;81;8400;3000;3944;3944;1;12920;22.54;27.14;26,4;BCS1388054;1;14
009803;24.11.2020;08:59:41;Normalcharge  ;03.12.2018;FEY;;LION;49;14500;7200;192;1;80;81;8400;3000;3944;3944;1;13001;22.54;27.14;26,4;BCS1388054;1;14
009803;24.11.2020;16:23:04;Stop          ;03.12.2018;FEY;;LION;49;14500;7200;224;1;99;100;8400;;4154;4154;1;12998;26.24;29.04;28,5;BCS1388054;1;14
009803;07.12.2020;04:14:17;Cycle         ;03.12.2018;FEY;;LION;49;14500;7200;224;1;99;100;8400;;4144;4144;1;13002;25.24;28.64;30,3;BCS1388054;1;3
009803;08.12.2020;16:19:38;Stop          ;03.12.2018;FEY;;LION;49;14500;7200;224;3;97;100;8400;;4152;4153;1;13002;27.04;30.04;31,9;BCS1388054;1;3
009803;03.03.2021;08:17:08;Normalcharge  ;03.12.2018;FEY;;LION;49;14500;7200;192;3;95;98;8400;;4116;4117;1;12998;22.64;23.34;23,5;BCS1388054;1;9
009803;04.03.2021;07:53:51;Stop          ;03.12.2018;FEY;;LION;49;14500;7200;192;3;95;98;8400;;4116;4116;1;12991;25.74;27.74;31,6;BCS1388054;1;9
009803;04.04.2021;11:50:33;Normalcharge  ;03.12.2018;FEY;;LION;49;14500;7200;192;3;50;52;8400;3000;3669;3669;1;12988;24.54;26.54;27,9;BCS1388054;2;18
009803;04.04.2021;11:51:48;Stop          ;03.12.2018;FEY;;LION;49;14500;7200;128;3;50;52;8400;3000;3758;3707;1;12557;24.64;29.84;28,6;BCS1388054;2;18
009803;05.04.2021;09:38:17;Charge to 60% ;03.12.2018;FEY;;LION;49;14500;7200;192;3;50;52;8400;3000;3671;3671;1;13018;24.64;25.74;26,4;BCS1388054;5;8
009803;05.04.2021;10:34:50;Charge to 60% ;03.12.2018;FEY;;LION;49;14500;7200;192;3;57;60;8400;3000;3747;3749;1;12932;27.54;29.44;32,4;BCS1388054;5;8
009803;05.04.2021;13:16:09;Stop          ;03.12.2018;FEY;;LION;49;14500;7200;192;3;57;60;8400;3000;3744;3746;1;13015;27.44;29.24;32,2;BCS1388054;5;8
009803;22.08.2021;11:37:30;Normalcharge  ;03.12.2018;FEY;;LION;49;14500;7200;192;3;53;55;8400;3000;3696;3696;1;12995;20.94;28.94;31,9;BCS1388054;3;6
009803;22.08.2021;11:38:19;Stop           ;03.12.2018;FEY;;LION;49;14500;7200;128;3;53;55;8400;3000;3782;3735;1;12564;21.14;30.64;32,1;BCS1388054;3;6
009803;25.08.2021;08:15:15;Ladung auf 60% ;03.12.2018;FEY;;LION;49;14500;7200;192;3;53;55;8400;3000;3699;3699;1;12990;30.04;30.94;33,4;BCS1388054;3;6
009803;25.08.2021;08:40:44;Stop           ;03.12.2018;FEY;;LION;49;14500;7200;192;3;57;60;8400;3000;3753;3755;1;12989;31.74;33.04;36,1;BCS1388054;3;6
009803;01.11.2021;09:52:01;Normalcharge  ;03.12.2018;FEY;;LION;49;14500;7200;192;3;55;57;8400;3000;3717;3718;1;13000;25.34;25.84;26,3;BCS1388054;5;14
009803;01.11.2021;09:53:41;Stop          ;03.12.2018;FEY;;LION;49;14500;7200;128;3;55;57;8400;3000;3812;3764;1;12580;25.44;30.14;27,3;BCS1388054;5;14
009803;01.11.2021;10:02:19;Normalcharge  ;03.12.2018;FEY;;LION;49;14500;7200;192;3;55;57;8400;3000;3722;3722;1;12995;25.54;28.04;29,5;BCS1388054;5;14
009803;01.11.2021;10:03:11;Stop          ;03.12.2018;FEY;;LION;49;14500;7200;128;3;55;58;8400;3000;3811;3762;1;12578;25.54;30.34;29,3;BCS1388054;5;14
009803;01.11.2021;10:27:35;Normalcharge  ;03.12.2018;FEY;;LION;49;14500;7200;192;3;55;58;8400;3000;3723;3724;1;13002;25.74;26.64;27,8;BCS1388054;5;14
009803;01.11.2021;10:29:14;Stop          ;03.12.2018;FEY;;LION;49;14500;7200;128;3;56;58;8400;3000;3818;3770;1;12579;25.84;30.84;28,6;BCS1388054;5;14
009803;01.11.2021;10:32:33;Charge to 60% ;03.12.2018;FEY;;LION;49;14500;7200;192;3;56;58;8400;3000;3728;3729;1;12997;25.94;28.24;29,9;BCS1388054;5;14
009803;01.11.2021;11:11:47;Stop          ;03.12.2018;FEY;;LION;49;14500;7200;192;3;57;60;8400;3000;3752;3754;1;12995;27.34;30.24;32,5;BCS1388054;5;14
009803;09.02.2022;08:16:53;Normalcharge  ;03.12.2018;FEY;;LION;49;14500;7200;192;3;45;47;8400;3000;3636;3636;1;12998;21.94;22.44;23,1;BCS1388054;1;5
009803;09.02.2022;13:56:48;Stop          ;03.12.2018;FEY;;LION;49;14500;7200;224;3;97;100;8400;;4157;4156;1;12957;24.84;25.54;29,9;BCS1388054;1;5
009803;14.03.2022;12:14:36;Normalcharge  ;03.12.2018;FEY;;LION;49;14500;7200;224;3;95;99;8400;;4131;4130;1;13010;23.94;25.14;27,7;BCS1388054;3;15
009803;14.03.2022;12:18:51;Stop           ;03.12.2018;FEY;;LION;49;14500;7200;224;3;95;99;8400;;4131;4130;1;12975;23.94;26.04;29,5;BCS1388054;3;15
009803;29.03.2022;08:21:05;Normalcharge  ;03.12.2018;FEY;;LION;49;14500;7200;192;4;82;84;8400;3000;3974;3973;1;12995;24.34;25.34;25,8;BCS1388054;2;15
009803;29.03.2022;08:21:45;Stop          ;03.12.2018;FEY;;LION;49;14500;7200;128;4;82;85;8400;3000;4043;4005;1;12725;24.34;26.94;26,0;BCS1388054;2;15
009803;29.03.2022;08:22:05;Normalcharge  ;03.12.2018;FEY;;LION;49;14500;7200;128;4;82;85;8400;3000;3977;3978;1;12993;24.44;26.74;26,1;BCS1388054;2;15
009803;29.03.2022;08:22:43;Stop          ;03.12.2018;FEY;;LION;49;14500;7200;128;4;82;85;8400;3000;4058;4013;1;12750;24.44;27.84;26,6;BCS1388054;2;15