File: reader/Batterieverzeichnis/009825.txt
Serialnumber ; Date ; Time ; Action ; Date of Manufacture ; Manufacturer ; Battery Name ; Device-Chemistry ; Specification-Info ; Design-Capacity [mAh] ; Design-Voltage [mV] ; Battery Status ; Cycle Count ; SOC [%] ; Relativ SOC[%] ; Desired Voltage [mV]; Desired Current [mA]; Cell Voltage 1 [mV] ; Cell Voltage 2 [mV] ; Max_Error [%] ; Busvoltage[mV] ; Battery Temperature [°C] ; Charger Temperature [°C] ; Batterysystem ; Case ; PLace
009825;30.11.2020;09:42:55;Stop          ;04.12.2018;FEY;;LION;49;14500;7200;192;1;97;98;8400;;4148;4150;1;13020;27.34;28.84;31,7;BCS1388054;7;3
009825;12.01.2021;04:17:28;Ladung auf 90% ;04.12.2018;FEY;;LION;49;14500;7200;192;1;96;97;8400;;4127;4129;1;13008;22.74;23.24;23,6;BCS1388054;3;18
009825;12.01.2021;04:57:30;Stop           ;04.12.2018;FEY;;LION;49;14500;7200;192;1;90;90;8400;3000;4062;4063;1;13003;27.44;29.94;31,5;BCS1388054;3;18
009825;12.01.2021;05:21:45;Cycle          ;04.12.2018;FEY;;LION;49;14500;7200;192;1;90;90;8400;3000;4066;4067;1;13005;27.04;27.94;30,4;BCS1388054;3;18
009825;13.01.2021;08:23:25;Stop           ;04.12.2018;FEY;;LION;49;14500;7200;224;2;97;100;8400;;4157;4158;1;13003;26.54;27.74;31,4;BCS1388054;3;18
009825;21.02.2021;13:43:48;Normalcharge  ;04.12.2018;FEY;;LION;49;14500;7200;192;2;67;69;8400;3000;3849;3849;1;13011;22.64;23.14;27,7;BCS1388054;3;5
009825;21.02.2021;20:44:52;Stop           ;04.12.2018;FEY;;LION;49;14500;7200;224;2;98;100;8400;;4153;4154;1;13006;26.24;27.14;31,2;BCS1388054;3;5
009825;06.04.2021;08:39:16;Normalcharge  ;04.12.2018;FEY;;LION;49;14500;7200;224;2;96;99;8400;;4128;4129;1;12998;20.94;26.74;28,1;BCS1388054;6;2
009825;06.04.2021;08:40:03;Stop          ;04.12.2018;FEY;;LION;49;14500;7200;224;2;96;99;8400;;4128;4129;1;12974;20.94;27.24;28,5;BCS1388054;6;2
009825;08.04.2021;07:58:44;Normalcharge  ;04.12.2018;FEY;;LION;49;14500;7200;224;2;96;99;8400;;4127;4128;1;13003;24.84;22.84;26,4;BCS1388054;6;2
009825;08.04.2021;07:59:23;Stop          ;04.12.2018;FEY;;LION;49;14500;7200;224;2;96;99;8400;;4127;4128;1;13002;24.84;26.54;26,7;BCS1388054;6;2
009825;08.04.2021;10:36:16;Normalcharge  ;04.12.2018;FEY;;LION;49;14500;7200;224;2;96;99;8400;;4127;4128;1;13001;25.04;27.54;28,6;BCS1388054;6;2
009825;08.04.2021;10:37:11;Stop          ;04.12.2018;FEY;;LION;49;14500;7200;224;2;96;99;8400;;4128;4129;1;12975;25.04;28.24;29,2;BCS1388054;6;2
009825;18.04.2021;08:34:33;Normalcharge  ;04.12.2018;FEY;;LION;49;14500;7200;192;2;96;98;8400;;4124;4124;1;12999;25.74;28.44;28,2;BCS1388054;6;2
009825;18.04.2021;08:34:41;Stop          ;04.12.2018;FEY;;LION;49;14500;7200;192;2;96;98;8400;;4123;4124;1;12999;25.74;28.54;28,2;BCS1388054;6;2
009825;04.08.2021;07:24:35;Normalcharge  ;04.12.2018;FEY;;LION;49;14500;7200;192;2;93;96;8400;;4091;4091;1;12997;29.74;31.44;31,5;BCS1388054;6;2
009825;04.08.2021;07:25:17;Stop          ;04.12.2018;FEY;;LION;49;14500;7200;192;2;93;96;8400;;4091;4091;1;12978;29.74;32.14;31,6;BCS1388054;6;2
009825;22.08.2021;11:37:21;Normalcharge  ;04.12.2018;FEY;;LION;49;14500;7200;192;2;87;90;8400;3000;4039;4040;1;13010;21.54;29.04;31,9;BCS1388054;5;15
009825;22.08.2021;11:38:04;Stop          ;04.12.2018;FEY;;LION;49;14500;7200;128;2;87;90;8400;3000;4102;4071;1;12759;21.64;30.54;32,0;BCS1388054;5;15
009825;01.11.2021;10:18:16;Normalcharge  ;04.12.2018;FEY;;LION;49;14500;7200;192;2;82;84;8400;3000;3972;3972;1;12993;23.94;26.24;28,2;BCS1388054;3;6
009825;01.11.2021;10:18:55;Stop           ;04.12.2018;FEY;;LION;49;14500;7200;128;2;82;84;8400;3000;4019;4007;1;12617;23.94;27.54;28,2;BCS1388054;3;6
009825;28.12.2021;09:01:25;Normalcharge  ;04.12.2018;FEY;;LION;49;14500;7200;192;2;80;83;8400;3000;3954;3954;1;13009;23.44;23.94;25,3;BCS1388054;3;7
009825;28.12.2021;09:02:24;Stop           ;04.12.2018;FEY;;LION;49;14500;7200;128;2;80;83;8400;3000;4046;4001;1;12568;23.44;26.24;25,8;BCS1388054;3;7
009825;14.03.2022;10:33:51;Normalcharge  ;04.12.2018;FEY;;LION;49;14500;7200;192;2;49;51;8400;3000;3654;3654;1;13003;23.74;24.34;25,3;BCS1388054;5;10
009825;14.03.2022;10:38:12;Stop          ;04.12.2018;FEY;;LION;49;14500;7200;128;2;50;52;8400;3000;3753;3704;1;12689;24.04;29.74;28,1;BCS1388054;5;10