File: reader/Batterieverzeichnis/009805.txt
Serialnumber ; Date ; Time ; Action ; Date of Manufacture ; Manufacturer ; Battery Name ; Device-Chemistry ; Specification-Info ; Design-Capacity [mAh] ; Design-Voltage [mV] ; Battery Status ; Cycle Count ; SOC [%] ; Relativ SOC[%] ; Desired Voltage [mV]; Desired Current [mA]; Cell Voltage 1 [mV] ; Cell Voltage 2 [mV] ; Max_Error [%] ; Busvoltage[mV] ; Battery Temperature [°C] ; Charger Temperature [°C] ; Batterysystem ; Case ; PLace
009805;07.12.2020;04:14:28;Cycle         ;04.12.2018;FEY;;LION;49;14500;7200;192;3;99;98;8400;;4139;4138;1;13003;25.74;28.34;30,3;BCS1388054;4;7
009805;08.12.2020;16:19:56;Stop          ;04.12.2018;FEY;;LION;49;14500;7200;192;3;99;98;8400;;4137;4136;1;13002;27.94;29.94;31,9;BCS1388054;4;7
009805;07.02.2021;08:46:53;Normalcharge  ;04.12.2018;FEY;;LION;49;14500;7200;192;3;97;96;8400;;4115;4115;1;13007;23.54;25.34;29,2;BCS1388054;3;9
009805;07.02.2021;11:52:16;Stop           ;04.12.2018;FEY;;LION;49;14500;7200;192;3;97;96;8400;;4115;4115;1;13007;25.84;26.94;29,7;BCS1388054;3;9
009805;03.03.2021;08:17:35;Normalcharge  ;04.12.2018;FEY;;LION;49;14500;7200;192;3;85;84;8400;3000;3978;3978;1;13018;23.14;23.74;23,6;BCS1388054;5;2
009805;03.03.2021;11:26:36;Stop          ;04.12.2018;FEY;;LION;49;14500;7200;224;3;102;100;8400;;4156;4156;1;13012;28.34;30.54;31,5;BCS1388054;5;2
009805;04.04.2021;11:50:02;Normalcharge  ;04.12.2018;FEY;;LION;49;14500;7200;192;3;53;54;8400;3000;3685;3685;1;12998;24.94;25.44;27,7;BCS1388054;6;7
009805;04.04.2021;11:51:24;Stop          ;04.12.2018;FEY;;LION;49;14500;7200;128;3;53;54;8400;3000;3770;3723;1;12668;24.94;28.74;28,5;BCS1388054;6;7
009805;05.04.2021;09:38:00;Ladung auf 60% ;04.12.2018;FEY;;LION;49;14500;7200;192;3;53;54;8400;3000;3687;3687;1;13008;24.94;24.74;26,3;BCS1388054;3;11
009805;05.04.2021;10:06:07;Stop           ;04.12.2018;FEY;;LION;49;14500;7200;128;3;59;60;8400;3000;3767;3767;1;13005;27.44;28.34;31,4;BCS1388054;3;11
009805;22.08.2021;11:08:13;Normalcharge  ;04.12.2018;FEY;;LION;49;14500;7200;192;3;55;55;8400;3000;3699;3698;1;12991;29.94;30.54;32,2;BCS1388054;6;8
009805;22.08.2021;11:08:46;Stop          ;04.12.2018;FEY;;LION;49;14500;7200;128;3;55;55;8400;3000;3724;3710;1;12797;29.94;31.64;32,5;BCS1388054;6;8
009805;25.08.2021;08:13:04;Normalcharge  ;04.12.2018;FEY;;LION;49;14500;7200;192;4;46;46;8400;3000;3637;3637;1;13015;30.44;31.54;32,4;BCS1388054;7;17
009805;25.08.2021;08:13:16;Stop          ;04.12.2018;FEY;;LION;49;14500;7200;192;4;46;46;8400;3000;3638;3637;1;13005;30.44;31.84;32,5;BCS1388054;7;17
009805;25.08.2021;08:14:41;Charge to 60% ;04.12.2018;FEY;;LION;49;14500;7200;192;4;46;46;8400;3000;3637;3637;1;13014;30.44;31.94;33,0;BCS1388054;7;17
009805;25.08.2021;08:37:46;Stop          ;04.12.2018;FEY;;LION;49;14500;7200;128;4;50;51;8400;3000;3761;3712;1;12720;32.24;40.54;36,1;BCS1388054;7;17
009805;25.08.2021;08:38:03;Charge to 60% ;04.12.2018;FEY;;LION;49;14500;7200;128;4;50;51;8400;3000;3681;3683;1;13013;32.34;39.54;36,1;BCS1388054;7;17
009805;25.08.2021;13:26:36;Stop          ;04.12.2018;FEY;;LION;49;14500;7200;192;4;59;60;8400;3000;3753;3752;1;13012;32.54;34.14;36,4;BCS1388054;7;17