File: reader/Batterieverzeichnis/009821.txt
Serialnumber ; Date ; Time ; Action ; Date of Manufacture ; Manufacturer ; Battery Name ; Device-Chemistry ; Specification-Info ; Design-Capacity [mAh] ; Design-Voltage [mV] ; Battery Status ; Cycle Count ; SOC [%] ; Relativ SOC[%] ; Desired Voltage [mV]; Desired Current [mA]; Cell Voltage 1 [mV] ; Cell Voltage 2 [mV] ; Max_Error [%] ; Busvoltage[mV] ; Battery Temperature [°C] ; Charger Temperature [°C] ; Batterysystem ; Case ; PLace
009821;07.12.2020;04:14:36;Cycle         ;04.12.2018;FEY;;LION;49;14500;7200;192;2;98;98;8400;;4140;4139;1;13000;25.44;27.84;30,3;BCS1388054;6;9
009821;08.12.2020;16:20:13;Stop          ;04.12.2018;FEY;;LION;49;14500;7200;192;2;98;98;8400;;4138;4137;1;13001;27.64;29.44;31,9;BCS1388054;6;9
009821;07.02.2021;08:46:53;Normalcharge  ;04.12.2018;FEY;;LION;49;14500;7200;192;2;96;96;8400;;4115;4115;1;13002;23.44;26.24;29,2;BCS1388054;3;1
009821;07.02.2021;11:52:16;Stop           ;04.12.2018;FEY;;LION;49;14500;7200;192;2;96;96;8400;;4116;4115;1;13002;25.64;27.74;29,7;BCS1388054;3;1
009821;03.03.2021;08:17:35;Normalcharge  ;04.12.2018;FEY;;LION;49;14500;7200;192;3;76;77;8400;3000;3917;3917;1;13005;22.94;22.84;23,6;BCS1388054;5;10
009821;03.03.2021;11:26:36;Stop          ;04.12.2018;FEY;;LION;49;14500;7200;224;3;100;100;8400;;4157;4158;1;12999;28.44;28.64;31,5;BCS1388054;5;10
009821;04.04.2021;11:50:28;Normalcharge  ;04.12.2018;FEY;;LION;49;14500;7200;192;3;54;55;8400;3000;3696;3697;1;13003;24.84;26.14;27,9;BCS1388054;3;9
009821;04.04.2021;11:51:43;Stop           ;04.12.2018;FEY;;LION;49;14500;7200;128;3;54;55;8400;3000;3783;3738;1;12780;24.84;28.64;28,6;BCS1388054;3;9
009821;05.04.2021;09:37:46;Charge to 60% ;04.12.2018;FEY;;LION;49;14500;7200;192;3;54;55;8400;3000;3698;3699;1;13003;24.84;26.44;26,1;BCS1388054;2;4
009821;05.04.2021;10:03:48;Stop          ;04.12.2018;FEY;;LION;49;14500;7200;192;3;58;60;8400;3000;3762;3764;1;12999;26.84;29.74;31,4;BCS1388054;2;4
009821;22.08.2021;11:08:00;Normalcharge  ;04.12.2018;FEY;;LION;49;14500;7200;192;3;45;46;8400;3000;3623;3624;1;12997;22.24;29.24;32,1;BCS1388054;3;18
009821;22.08.2021;11:08:34;Stop           ;04.12.2018;FEY;;LION;49;14500;7200;128;3;45;46;8400;3000;3691;3654;1;12683;22.44;30.64;32,4;BCS1388054;3;18