File: reader/Batterieverzeichnis/009835.txt
Serialnumber ; Date ; Time ; Action ; Date of Manufacture ; Manufacturer ; Battery Name ; Device-Chemistry ; Specification-Info ; Design-Capacity [mAh] ; Design-Voltage [mV] ; Battery Status ; Cycle Count ; SOC [%] ; Relativ SOC[%] ; Desired Voltage [mV]; Desired Current [mA]; Cell Voltage 1 [mV] ; Cell Voltage 2 [mV] ; Max_Error [%] ; Busvoltage[mV] ; Battery Temperature [°C] ; Charger Temperature [°C] ; Batterysystem ; Case ; PLace
009835;07.02.2021;08:46:53;Normalcharge  ;04.12.2018;FEY;;LION;49;14500;7200;192;3;96;96;8400;;4106;4106;1;13006;23.44;25.14;29,2;BCS1388054;3;5
009835;07.02.2021;11:52:16;Stop           ;04.12.2018;FEY;;LION;49;14500;7200;192;3;96;96;8400;;4106;4106;1;13006;25.64;26.34;29,7;BCS1388054;3;5
009835;03.03.2021;08:17:17;Normalcharge  ;04.12.2018;FEY;;LION;49;14500;7200;192;3;95;95;8400;3000;4099;4099;1;13002;22.94;23.04;23,5;BCS1388054;2;13
009835;04.03.2021;07:53:46;Stop          ;04.12.2018;FEY;;LION;49;14500;7200;224;3;100;100;8400;;4146;4147;1;12994;26.24;27.74;31,6;BCS1388054;2;13
009835;04.04.2021;11:50:33;Normalcharge  ;04.12.2018;FEY;;LION;49;14500;7200;192;4;54;55;8400;3000;3694;3695;1;13005;24.74;27.04;27,9;BCS1388054;2;4
009835;04.04.2021;11:51:48;Stop          ;04.12.2018;FEY;;LION;49;14500;7200;128;4;54;55;8400;3000;3783;3737;1;12602;24.84;29.84;28,6;BCS1388054;2;4
009835;05.04.2021;09:37:46;Charge to 60% ;04.12.2018;FEY;;LION;49;14500;7200;192;4;54;55;8400;3000;3696;3698;1;12991;24.94;26.44;26,1;BCS1388054;2;7
009835;05.04.2021;10:03:48;Stop          ;04.12.2018;FEY;;LION;49;14500;7200;192;4;58;60;8400;3000;3757;3766;1;12987;26.84;30.34;31,4;BCS1388054;2;7
009835;22.08.2021;11:08:19;Normalcharge  ;04.12.2018;FEY;;LION;49;14500;7200;192;4;54;56;8400;3000;3699;3700;1;13024;29.54;30.64;32,2;BCS1388054;7;17
009835;22.08.2021;11:08:51;Stop          ;04.12.2018;FEY;;LION;49;14500;7200;128;4;54;56;8400;3000;3730;3715;1;12848;29.54;31.94;32,6;BCS1388054;7;17
009835;25.08.2021;08:15:08;Charge to 60% ;04.12.2018;FEY;;LION;49;14500;7200;192;4;54;56;8400;3000;3699;3701;1;13003;30.24;31.54;33,4;BCS1388054;4;12
009835;25.08.2021;12:59:17;Stop          ;04.12.2018;FEY;;LION;49;14500;7200;192;4;58;60;8400;3000;3746;3750;1;13003;32.44;33.24;36,6;BCS1388054;4;12
009835;01.11.2021;09:52:21;Normalcharge  ;04.12.2018;FEY;;LION;49;14500;7200;192;4;56;57;8400;3000;3716;3718;1;12999;25.74;26.64;26,4;BCS1388054;1;14
009835;01.11.2021;09:53:14;Stop          ;04.12.2018;FEY;;LION;49;14500;7200;128;4;56;57;8400;3000;3800;3755;1;12465;25.74;29.14;26,8;BCS1388054;1;14
009835;01.11.2021;10:01:59;Normalcharge  ;04.12.2018;FEY;;LION;49;14500;7200;192;4;56;57;8400;3000;3718;3720;1;12994;25.84;28.54;29,5;BCS1388054;1;14
009835;01.11.2021;10:03:29;Stop          ;04.12.2018;FEY;;LION;49;14500;7200;128;4;56;57;8400;3000;3807;3763;1;12466;25.94;31.84;29,3;BCS1388054;1;14
009835;01.11.2021;10:27:58;Normalcharge  ;04.12.2018;FEY;;LION;49;14500;7200;192;4;56;57;8400;3000;3721;3723;1;12990;26.14;27.24;27,8;BCS1388054;1;14
009835;01.11.2021;10:28:31;Stop          ;04.12.2018;FEY;;LION;49;14500;7200;128;4;56;58;8400;3000;3752;3738;1;12640;26.14;28.64;28,1;BCS1388054;1;14
009835;01.11.2021;10:31:48;Charge to 60% ;04.12.2018;FEY;;LION;49;14500;7200;192;4;56;58;8400;3000;3722;3724;1;12990;26.14;27.64;29,9;BCS1388054;1;14
009835;01.11.2021;11:39:51;Stop          ;04.12.2018;FEY;;LION;49;14500;7200;192;4;58;60;8400;3000;3750;3754;1;12988;27.64;30.14;32,5;BCS1388054;1;14
009835;09.02.2022;08:17:05;Normalcharge  ;04.12.2018;FEY;;LION;49;14500;7200;192;4;56;57;8400;3000;3710;3711;1;13000;22.24;22.94;23,1;BCS1388054;4;3
009835;09.02.2022;13:58:16;Stop          ;04.12.2018;FEY;;LION;49;14500;7200;192;4;56;57;8400;3000;3711;3712;1;12993;24.94;27.04;30,0;BCS1388054;4;3
009835;13.02.2022;10:58:25;Normalcharge  ;04.12.2018;FEY;;LION;49;14500;7200;192;4;55;56;8400;3000;3709;3711;1;13006;22.24;21.54;26,1;BCS1388054;3;16
009835;13.02.2022;17:19:51;Stop           ;04.12.2018;FEY;;LION;49;14500;7200;224;4;98;100;8400;;4154;4155;1;13000;24.94;25.34;29,0;BCS1388054;3;16