File: reader/Batterieverzeichnis/009818.txt
Serialnumber ; Date ; Time ; Action ; Date of Manufacture ; Manufacturer ; Battery Name ; Device-Chemistry ; Specification-Info ; Design-Capacity [mAh] ; Design-Voltage [mV] ; Battery Status ; Cycle Count ; SOC [%] ; Relativ SOC[%] ; Desired Voltage [mV]; Desired Current [mA]; Cell Voltage 1 [mV] ; Cell Voltage 2 [mV] ; Max_Error [%] ; Busvoltage[mV] ; Battery Temperature [°C] ; Charger Temperature [°C] ; Batterysystem ; Case ; PLace
009818;10.12.2019;15:29:01;Charge to 30% ;04.12.2018;FEY;;LION;49;14500;7200;224;43;94;100;8400;;4131;4131;1;13017;22.64;25.04;27,1;BCS1388054;5;2
009818;10.12.2019;20:48:54;Stop          ;04.12.2018;FEY;;LION;49;14500;7200;192;44;29;30;8400;3000;3556;3559;1;13015;33.54;34.54;33,1;BCS1388054;5;2
009818;11.12.2019;08:48:53;Fastcharge    ;04.12.2018;FEY;;LION;49;14500;7200;192;44;29;30;8400;3000;3566;3568;1;13015;26.64;29.24;31,9;BCS1388054;5;2
009818;11.12.2019;13:40:11;Stop          ;04.12.2018;FEY;;LION;49;14500;7200;224;44;95;100;8400;;4160;4160;1;13016;30.34;31.64;32,4;BCS1388054;5;2
009818;11.12.2019;15:46:40;Charge to 10% ;04.12.2018;FEY;;LION;49;14500;7200;224;44;96;100;8400;;4153;4153;1;13015;27.44;29.64;31,4;BCS1388054;5;2
009818;11.12.2019;22:49:07;Stop          ;04.12.2018;FEY;;LION;49;14500;7200;192;45;10;10;8400;3000;3349;3352;1;13016;34.44;35.44;33,5;BCS1388054;5;2
009818;12.12.2019;08:45:10;Normalcharge  ;04.12.2018;FEY;;LION;49;14500;7200;192;45;9;10;8400;3000;3361;3363;1;13015;26.84;29.44;31,7;BCS1388054;5;2
009818;12.12.2019;16:41:20;Stop          ;04.12.2018;FEY;;LION;49;14500;7200;224;45;96;100;8400;;4160;4160;1;13015;29.44;30.94;31,6;BCS1388054;5;2
009818;13.12.2019;10:48:05;Charge to 10% ;04.12.2018;FEY;;LION;49;14500;7200;224;45;96;100;8400;;4149;4149;1;13016;26.84;29.64;32,0;BCS1388054;5;2
009818;13.12.2019;15:40:55;Stop          ;04.12.2018;FEY;;LION;49;14500;7200;192;46;35;37;8400;3000;3501;3554;1;13513;32.94;39.64;34,6;BCS1388054;5;2
009818;13.12.2019;15:41:42;Cycle         ;04.12.2018;FEY;;LION;49;14500;7200;192;46;35;37;8400;3000;3582;3583;1;13015;32.84;37.34;34,5;BCS1388054;5;2
009818;14.12.2019;22:39:35;Stop          ;04.12.2018;FEY;;LION;49;14500;7200;224;47;93;99;8400;;4152;4153;1;13015;26.94;29.34;31,7;BCS1388054;5;2
009818;16.12.2019;07:43:20;Charge to 10% ;04.12.2018;FEY;;LION;49;14500;7200;224;47;94;100;8400;;4146;4146;1;13016;26.64;28.64;31,9;BCS1388054;5;2
009818;16.12.2019;14:34:29;Stop          ;04.12.2018;FEY;;LION;49;14500;7200;192;49;10;10;8400;3000;3362;3366;1;13016;32.74;33.94;32,5;BCS1388054;5;2
009818;16.12.2019;14:44:17;Charge to 90% ;04.12.2018;FEY;;LION;49;14500;7200;192;49;10;10;8400;3000;3365;3369;1;13015;31.94;31.94;31,9;BCS1388054;5;2
009818;16.12.2019;20:48:55;Stop          ;04.12.2018;FEY;;LION;49;14500;7200;192;49;84;90;8400;3000;4057;4059;1;13016;32.04;33.04;31,9;BCS1388054;5;2
009818;17.12.2019;08:37:53;Fastcharge    ;04.12.2018;FEY;;LION;49;14500;7200;192;49;84;90;8400;3000;4046;4048;1;13016;26.74;29.24;31,6;BCS1388054;5;2
009818;17.12.2019;10:33:46;Stop          ;04.12.2018;FEY;;LION;49;14500;7200;224;49;95;100;8400;;4158;4159;1;13016;28.34;30.14;31,1;BCS1388054;5;2
009818;17.12.2019;10:33:46;Stop          ;04.12.2018;FEY;;LION;49;14500;7200;224;49;95;100;8400;;4158;4159;1;13016;28.34;30.14;31,1;BCS1388054;5;2
009818;17.12.2019;13:38:36;Charge to 10% ;04.12.2018;FEY;;LION;49;14500;7200;224;49;95;100;8400;;4150;4150;1;13015;27.04;29.24;30,8;BCS1388054;5;2
009818;17.12.2019;20:33:18;Stop          ;04.12.2018;FEY;;LION;49;14500;7200;192;50;10;10;8400;3000;3361;3364;1;13015;34.34;35.34;34,5;BCS1388054;5;2
009818;18.12.2019;08:31:30;Fastcharge    ;04.12.2018;FEY;;LION;49;14500;7200;192;50;10;10;8400;3000;3371;3375;1;13015;26.84;29.44;31,6;BCS1388054;5;2
009818;18.12.2019;14:29:27;Stop          ;04.12.2018;FEY;;LION;49;14500;7200;224;50;95;100;8400;;4160;4161;1;13016;30.34;31.34;31,7;BCS1388054;5;2
009818;19.12.2019;08:24:02;Charge to 60% ;04.12.2018;FEY;;LION;49;14500;7200;224;50;96;100;8400;;4149;4150;1;13015;26.74;29.24;31,5;BCS1388054;5;2
009818;19.12.2019;11:31:09;Stop          ;04.12.2018;FEY;;LION;49;14500;7200;192;50;58;60;8400;3000;3764;3769;1;13015;34.14;35.54;34,4;BCS1388054;5;2
009818;19.12.2019;12:16:49;Cycle         ;04.12.2018;FEY;;LION;49;14500;7200;192;50;58;60;8400;3000;3774;3780;1;13016;30.74;31.44;32,7;BCS1388054;5;2
009818;20.12.2019;17:27:50;Stop          ;04.12.2018;FEY;;LION;49;14500;7200;224;51;94;100;8400;;4152;4153;1;13016;27.14;29.24;31,0;BCS1388054;5;2
009818;06.01.2020;06:34:55;Charge to 60% ;04.12.2018;FEY;;LION;49;14500;7200;224;51;93;99;8400;;4122;4122;1;13016;27.04;29.44;31,9;BCS1388054;5;2
009818;06.01.2020;09:30:26;Stop          ;04.12.2018;FEY;;LION;49;14500;7200;192;52;57;60;8400;3000;3760;3764;1;13016;33.34;35.54;33,9;BCS1388054;5;2
009818;06.01.2020;09:50:42;Fastcharge    ;04.12.2018;FEY;;LION;49;14500;7200;192;52;57;60;8400;3000;3770;3776;1;13017;31.84;32.04;32,7;BCS1388054;5;2
009818;06.01.2020;13:09:56;Stop          ;04.12.2018;FEY;;LION;49;14500;7200;224;52;95;100;8400;;4160;4161;1;13017;29.84;30.84;31,4;BCS1388054;5;2