File: reader/backup_20211101/Batterieverzeichnis_new/001083.txt
Serialnumber ; Date ; Time ; Action ; Date of Manufacture ; Manufacturer ; Battery Name ; Device-Chemistry ; Specification-Info ; Design-Capacity [mAh] ; Design-Voltage [mV] ; Battery Status ; Cycle Count ; SOC [%] ; Relativ SOC[%] ; Desired Voltage [mV]; Desired Current [mA]; Cell Voltage 1 [mV] ; Cell Voltage 2 [mV] ; Max_Error [%] ; Busvoltage[mV] ; Battery Temperature [°C] ; Charger Temperature [°C] ; Batterysystem ; Case ; PLace
001083;10.12.2019;15:29:09;Charge to 30% ;15.02.2018;FEY;;LION;49;14500;7200;224;10;93;99;8400;;4124;4123;1;13003;22.84;26.24;27,1;BCS1388054;6;13
001083;10.12.2019;20:46:41;Stop          ;15.02.2018;FEY;;LION;49;14500;7200;192;11;29;30;8400;3000;3559;3558;1;13001;33.94;36.84;33,6;BCS1388054;6;13
001083;11.12.2019;08:49:03;Fastcharge    ;15.02.2018;FEY;;LION;49;14500;7200;192;11;29;30;8400;3000;3568;3568;1;13000;26.74;29.14;31,9;BCS1388054;6;13
001083;11.12.2019;13:39:30;Stop          ;15.02.2018;FEY;;LION;49;14500;7200;224;11;95;100;8400;;4163;4163;1;13001;30.94;31.94;32,5;BCS1388054;6;13
001083;11.12.2019;15:46:47;Charge to 10% ;15.02.2018;FEY;;LION;49;14500;7200;224;11;97;100;8400;;4157;4156;1;13002;27.54;29.64;31,4;BCS1388054;6;13
001083;11.12.2019;22:52:10;Stop          ;15.02.2018;FEY;;LION;49;14500;7200;192;12;10;10;8400;3000;3357;3357;1;13002;34.74;35.84;33,0;BCS1388054;6;13
001083;12.12.2019;08:45:18;Normalcharge  ;15.02.2018;FEY;;LION;49;14500;7200;192;12;9;9;8400;3000;3366;3365;1;13002;26.94;29.34;31,7;BCS1388054;6;13
001083;12.12.2019;16:41:29;Stop          ;15.02.2018;FEY;;LION;49;14500;7200;224;12;96;100;8400;;4161;4160;1;13002;29.94;31.24;31,5;BCS1388054;6;13
001083;13.12.2019;10:48:09;Charge to 10% ;15.02.2018;FEY;;LION;49;14500;7200;224;12;96;100;8400;;4151;4151;1;13001;26.94;29.34;32,0;BCS1388054;6;13
001083;13.12.2019;13:51:54;Stop          ;15.02.2018;FEY;;LION;49;14500;7200;192;13;58;60;8400;3000;3685;3732;1;13486;35.04;45.14;36,1;BCS1388054;6;13
001083;16.12.2019;07:43:34;Charge to 10% ;15.02.2018;FEY;;LION;49;14500;7200;192;13;58;60;8400;3000;3784;3783;1;13033;22.94;25.74;31,7;BCS1388054;7;4
001083;16.12.2019;11:52:34;Stop          ;15.02.2018;FEY;;LION;49;14500;7200;192;14;10;10;8400;3000;3360;3359;1;13031;31.94;31.34;34,7;BCS1388054;7;4
001083;16.12.2019;14:44:25;Charge to 90% ;15.02.2018;FEY;;LION;49;14500;7200;192;14;10;10;8400;3000;3365;3365;1;13031;28.64;28.54;31,7;BCS1388054;7;4
001083;16.12.2019;20:53:58;Stop          ;15.02.2018;FEY;;LION;49;14500;7200;192;14;85;90;8400;3000;4055;4055;1;13032;31.14;29.54;32,1;BCS1388054;7;4
001083;17.12.2019;08:38:01;Fastcharge    ;15.02.2018;FEY;;LION;49;14500;7200;192;14;85;90;8400;3000;4045;4044;1;13032;26.04;27.14;31,6;BCS1388054;7;4
001083;17.12.2019;10:36:25;Stop          ;15.02.2018;FEY;;LION;49;14500;7200;224;14;95;100;8400;;4159;4158;1;13031;27.54;27.94;31,5;BCS1388054;7;4
001083;17.12.2019;13:38:44;Charge to 10% ;15.02.2018;FEY;;LION;49;14500;7200;224;14;95;100;8400;;4153;4152;1;13033;26.44;27.14;30,8;BCS1388054;7;4
001083;17.12.2019;20:42:03;Stop          ;15.02.2018;FEY;;LION;49;14500;7200;192;15;10;10;8400;3000;3361;3360;1;13032;32.84;30.54;32,6;BCS1388054;7;4
001083;18.12.2019;08:31:43;Fastcharge    ;15.02.2018;FEY;;LION;49;14500;7200;192;15;8;9;8400;3000;3369;3369;1;13033;26.24;27.14;31,6;BCS1388054;7;4
001083;18.12.2019;14:30:48;Stop          ;15.02.2018;FEY;;LION;49;14500;7200;224;15;93;100;8400;;4162;4161;1;13032;29.24;28.54;31,6;BCS1388054;7;4
001083;19.12.2019;08:24:17;Charge to 60% ;15.02.2018;FEY;;LION;49;14500;7200;224;15;95;100;8400;;4152;4150;1;13032;26.14;27.14;31,6;BCS1388054;7;4
001083;19.12.2019;11:28:26;Stop          ;15.02.2018;FEY;;LION;49;14500;7200;192;15;57;60;8400;3000;3772;3770;1;13031;32.94;32.64;35,1;BCS1388054;7;4
001083;19.12.2019;12:16:57;Cycle         ;15.02.2018;FEY;;LION;49;14500;7200;192;15;57;60;8400;3000;3786;3785;1;13032;29.64;28.84;32,7;BCS1388054;7;4
001083;20.12.2019;17:22:28;Stop          ;15.02.2018;FEY;;LION;49;14500;7200;224;16;94;100;8400;;4155;4154;1;13032;26.44;27.44;31,9;BCS1388054;7;4
001083;06.01.2020;06:35:02;Charge to 60% ;15.02.2018;FEY;;LION;49;14500;7200;192;16;93;98;8400;;4124;4123;1;13034;26.24;27.14;31,9;BCS1388054;7;4
001083;06.01.2020;09:29:52;Stop          ;15.02.2018;FEY;;LION;49;14500;7200;192;16;57;60;8400;3000;3769;3767;1;13033;32.14;31.74;34,0;BCS1388054;7;4
001083;06.01.2020;09:50:50;Fastcharge    ;15.02.2018;FEY;;LION;49;14500;7200;192;16;57;60;8400;3000;3782;3780;1;13033;30.64;29.34;32,7;BCS1388054;7;4
001083;06.01.2020;13:05:11;Stop          ;15.02.2018;FEY;;LION;49;14500;7200;224;16;95;100;8400;;4160;4160;1;13033;28.84;28.54;32,4;BCS1388054;7;4