File: reader/backup_20211101/Batterieverzeichnis_new/001069.txt
Serialnumber ; Date ; Time ; Action ; Date of Manufacture ; Manufacturer ; Battery Name ; Device-Chemistry ; Specification-Info ; Design-Capacity [mAh] ; Design-Voltage [mV] ; Battery Status ; Cycle Count ; SOC [%] ; Relativ SOC[%] ; Desired Voltage [mV]; Desired Current [mA]; Cell Voltage 1 [mV] ; Cell Voltage 2 [mV] ; Max_Error [%] ; Busvoltage[mV] ; Battery Temperature [°C] ; Charger Temperature [°C] ; Batterysystem ; Case ; PLace
001069;10.12.2019;15:29:09;Charge to 30% ;15.02.2018;FEY;;LION;49;14500;7200;224;11;93;99;8400;;4124;4123;1;13010;22.44;25.44;27,1;BCS1388054;6;10
001069;10.12.2019;20:46:41;Stop          ;15.02.2018;FEY;;LION;49;14500;7200;192;11;29;30;8400;3000;3554;3552;1;13005;32.94;34.84;33,6;BCS1388054;6;10
001069;11.12.2019;08:49:03;Fastcharge    ;15.02.2018;FEY;;LION;49;14500;7200;192;11;29;30;8400;3000;3566;3564;1;13008;26.14;28.04;31,9;BCS1388054;6;10
001069;11.12.2019;13:39:30;Stop          ;15.02.2018;FEY;;LION;49;14500;7200;224;11;96;100;8400;;4164;4164;1;13007;29.94;30.24;32,5;BCS1388054;6;10
001069;11.12.2019;15:46:47;Charge to 10% ;15.02.2018;FEY;;LION;49;14500;7200;224;11;98;100;8400;;4157;4157;1;13007;27.04;28.44;31,4;BCS1388054;6;10
001069;11.12.2019;22:52:10;Stop          ;15.02.2018;FEY;;LION;49;14500;7200;192;13;10;10;8400;3000;3350;3348;1;13005;33.74;33.84;33,0;BCS1388054;6;10
001069;12.12.2019;08:45:18;Normalcharge  ;15.02.2018;FEY;;LION;49;14500;7200;192;13;8;9;8400;3000;3362;3360;1;13008;26.34;28.24;31,7;BCS1388054;6;10
001069;12.12.2019;16:41:29;Stop          ;15.02.2018;FEY;;LION;49;14500;7200;224;13;96;100;8400;;4162;4162;1;13007;29.04;29.54;31,5;BCS1388054;6;10
001069;13.12.2019;10:48:09;Charge to 10% ;15.02.2018;FEY;;LION;49;14500;7200;224;13;96;100;8400;;4152;4152;1;13008;26.34;28.34;32,0;BCS1388054;6;10
001069;13.12.2019;13:51:54;Stop          ;15.02.2018;FEY;;LION;49;14500;7200;192;13;58;60;8400;3000;3688;3736;1;13496;34.04;39.74;36,1;BCS1388054;6;10
001069;13.12.2019;13:53:13;Fastcharge    ;15.02.2018;FEY;;LION;49;14500;7200;192;13;58;60;8400;3000;3771;3769;1;13008;34.04;37.54;35,8;BCS1388054;6;10
001069;13.12.2019;13:53:19;Stop          ;15.02.2018;FEY;;LION;49;14500;7200;192;13;58;60;8400;3000;3771;3770;1;13000;34.04;37.34;35,8;BCS1388054;6;10
001069;13.12.2019;13:53:25;Normalcharge  ;15.02.2018;FEY;;LION;49;14500;7200;192;13;58;60;8400;3000;3771;3770;1;13009;34.04;37.34;35,8;BCS1388054;6;10
001069;13.12.2019;20:04:59;Stop          ;15.02.2018;FEY;;LION;49;14500;7200;224;13;96;100;8400;;4157;4158;1;13012;27.74;29.34;32,0;BCS1388054;6;10
001069;16.12.2019;07:43:27;Charge to 10% ;15.02.2018;FEY;;LION;49;14500;7200;224;13;96;100;8400;;4148;4149;1;13014;26.14;27.14;31,7;BCS1388054;6;10
001069;16.12.2019;14:43:10;Stop          ;15.02.2018;FEY;;LION;49;14500;7200;192;14;10;10;8400;3000;3351;3350;1;13013;31.64;32.14;31,7;BCS1388054;6;10
001069;16.12.2019;14:44:21;Charge to 90% ;15.02.2018;FEY;;LION;49;14500;7200;192;14;10;10;8400;3000;3353;3351;1;13013;31.54;31.34;31,9;BCS1388054;6;10
001069;16.12.2019;20:54:26;Stop          ;15.02.2018;FEY;;LION;49;14500;7200;192;14;86;90;8400;3000;4051;4052;1;13013;31.64;32.14;32,1;BCS1388054;6;10
001069;17.12.2019;08:37:57;Fastcharge    ;15.02.2018;FEY;;LION;49;14500;7200;192;14;86;90;8400;3000;4040;4041;1;13014;26.24;28.04;31,6;BCS1388054;6;10
001069;17.12.2019;13:38:40;Charge to 10% ;15.02.2018;FEY;;LION;49;14500;7200;224;14;96;100;8400;;4155;4157;1;13015;26.54;28.04;30,8;BCS1388054;6;10
001069;17.12.2019;20:41:41;Stop          ;15.02.2018;FEY;;LION;49;14500;7200;192;15;10;10;8400;3000;3347;3346;1;13011;33.74;34.74;32,6;BCS1388054;6;10
001069;18.12.2019;08:31:34;Fastcharge    ;15.02.2018;FEY;;LION;49;14500;7200;192;15;8;9;8400;3000;3362;3361;1;13015;26.34;28.14;31,6;BCS1388054;6;10
001069;18.12.2019;14:33:31;Stop          ;15.02.2018;FEY;;LION;49;14500;7200;224;15;95;100;8400;;4162;4165;1;13013;29.84;29.84;31,4;BCS1388054;6;10
001069;19.12.2019;08:24:06;Charge to 60% ;15.02.2018;FEY;;LION;49;14500;7200;224;15;96;100;8400;;4152;4155;1;13014;26.24;28.04;31,5;BCS1388054;6;10
001069;19.12.2019;11:34:24;Stop          ;15.02.2018;FEY;;LION;49;14500;7200;192;16;58;60;8400;3000;3778;3779;1;13012;33.14;33.04;33,5;BCS1388054;6;10
001069;19.12.2019;12:16:53;Cycle         ;15.02.2018;FEY;;LION;49;14500;7200;192;16;58;60;8400;3000;3784;3785;1;13013;30.14;30.24;32,7;BCS1388054;6;10
001069;20.12.2019;17:31:05;Stop          ;15.02.2018;FEY;;LION;49;14500;7200;224;17;95;100;8400;;4155;4154;1;13016;26.64;27.94;30,6;BCS1388054;6;10
001069;06.01.2020;06:34:58;Charge to 60% ;15.02.2018;FEY;;LION;49;14500;7200;192;17;94;98;8400;;4124;4123;1;13015;26.44;28.24;31,9;BCS1388054;6;10
001069;06.01.2020;09:30:42;Stop          ;15.02.2018;FEY;;LION;49;14500;7200;192;18;58;60;8400;3000;3761;3759;1;13013;32.64;36.14;33,7;BCS1388054;6;10
001069;06.01.2020;09:50:46;Fastcharge    ;15.02.2018;FEY;;LION;49;14500;7200;192;18;58;60;8400;3000;3779;3777;1;13014;31.14;30.74;32,7;BCS1388054;6;10
001069;06.01.2020;13:06:22;Stop          ;15.02.2018;FEY;;LION;49;14500;7200;224;18;96;100;8400;;4161;4160;1;13015;29.44;29.84;32,1;BCS1388054;6;10