File: reader/backup_20211101/Batterieverzeichnis_new/009543.txt
Serialnumber ; Date ; Time ; Action ; Date of Manufacture ; Manufacturer ; Battery Name ; Device-Chemistry ; Specification-Info ; Design-Capacity [mAh] ; Design-Voltage [mV] ; Battery Status ; Cycle Count ; SOC [%] ; Relativ SOC[%] ; Desired Voltage [mV]; Desired Current [mA]; Cell Voltage 1 [mV] ; Cell Voltage 2 [mV] ; Max_Error [%] ; Busvoltage[mV] ; Battery Temperature [°C] ; Charger Temperature [°C] ; Batterysystem ; Case ; PLace
009543;10.12.2019;15:28:53;Charge to 30% ;04.12.2018;FEY;;LION;49;14500;7200;224;52;93;100;8400;;4129;4130;1;13003;22.84;25.34;27,1;BCS1388054;4;2
009543;10.12.2019;20:47:57;Stop          ;04.12.2018;FEY;;LION;49;14500;7200;192;53;29;30;8400;3000;3559;3560;1;13003;34.14;34.64;33,4;BCS1388054;4;2
009543;11.12.2019;08:48:41;Fastcharge    ;04.12.2018;FEY;;LION;49;14500;7200;192;53;29;30;8400;3000;3567;3568;1;13004;26.74;29.44;31,9;BCS1388054;4;2
009543;11.12.2019;13:42:44;Stop          ;04.12.2018;FEY;;LION;49;14500;7200;224;53;94;100;8400;;4161;4162;1;13003;30.54;31.44;31,9;BCS1388054;4;2
009543;11.12.2019;15:46:31;Charge to 10% ;04.12.2018;FEY;;LION;49;14500;7200;224;53;96;100;8400;;4153;4154;1;13003;27.64;29.74;31,4;BCS1388054;4;2
009543;11.12.2019;22:50:44;Stop          ;04.12.2018;FEY;;LION;49;14500;7200;192;54;10;10;8400;3000;3356;3358;1;13002;34.84;34.74;33,2;BCS1388054;4;2
009543;12.12.2019;08:45:03;Normalcharge  ;04.12.2018;FEY;;LION;49;14500;7200;192;54;9;10;8400;3000;3365;3366;1;13001;26.84;29.54;31,9;BCS1388054;4;2
009543;12.12.2019;16:41:48;Stop          ;04.12.2018;FEY;;LION;49;14500;7200;224;54;96;100;8400;;4159;4160;1;13003;29.64;30.94;31,5;BCS1388054;4;2
009543;13.12.2019;10:48:01;Charge to 10% ;04.12.2018;FEY;;LION;49;14500;7200;224;54;95;100;8400;;4148;4149;1;13002;26.94;29.64;32,0;BCS1388054;4;2
009543;13.12.2019;15:42:25;Stop          ;04.12.2018;FEY;;LION;49;14500;7200;192;55;34;36;8400;3000;3499;3552;1;13492;33.54;39.84;34,6;BCS1388054;4;2
009543;13.12.2019;15:42:27;Cycle         ;04.12.2018;FEY;;LION;49;14500;7200;192;55;34;36;8400;3000;3499;3552;1;13003;33.54;39.74;34,6;BCS1388054;4;2
009543;14.12.2019;22:44:28;Stop          ;04.12.2018;FEY;;LION;49;14500;7200;224;56;93;99;8400;;4151;4151;1;13003;27.04;29.64;32,0;BCS1388054;4;2
009543;16.12.2019;07:43:14;Charge to 10% ;04.12.2018;FEY;;LION;49;14500;7200;224;56;93;100;8400;;4146;4145;1;13003;26.74;29.14;31,9;BCS1388054;4;2
009543;16.12.2019;14:36:44;Stop          ;04.12.2018;FEY;;LION;49;14500;7200;192;58;10;10;8400;3000;3364;3366;1;13004;33.24;33.34;32,4;BCS1388054;4;2
009543;16.12.2019;14:44:13;Charge to 90% ;04.12.2018;FEY;;LION;49;14500;7200;192;58;10;10;8400;3000;3366;3367;1;13004;32.74;32.24;31,7;BCS1388054;4;2
009543;16.12.2019;20:50:27;Stop          ;04.12.2018;FEY;;LION;49;14500;7200;192;58;84;90;8400;3000;4056;4057;1;13004;32.34;32.44;31,6;BCS1388054;4;2
009543;17.12.2019;08:37:49;Fastcharge    ;04.12.2018;FEY;;LION;49;14500;7200;192;58;84;90;8400;3000;4046;4048;1;13003;26.74;29.44;31,6;BCS1388054;4;2
009543;17.12.2019;10:31:06;Stop          ;04.12.2018;FEY;;LION;49;14500;7200;224;58;94;100;8400;;4163;4165;1;13003;28.54;31.04;31,4;BCS1388054;4;2
009543;17.12.2019;13:38:32;Charge to 10% ;04.12.2018;FEY;;LION;49;14500;7200;224;58;94;100;8400;;4150;4151;1;13003;27.04;29.34;30,8;BCS1388054;4;2
009543;17.12.2019;20:34:29;Stop          ;04.12.2018;FEY;;LION;49;14500;7200;192;59;10;10;8400;3000;3364;3365;1;13002;34.84;34.94;34,1;BCS1388054;4;2
009543;18.12.2019;08:31:26;Fastcharge    ;04.12.2018;FEY;;LION;49;14500;7200;192;59;10;10;8400;3000;3372;3374;1;13003;26.84;29.44;31,6;BCS1388054;4;2
009543;18.12.2019;14:29:12;Stop          ;04.12.2018;FEY;;LION;49;14500;7200;224;59;94;100;8400;;4162;4164;1;13004;30.64;31.54;31,9;BCS1388054;4;2
009543;19.12.2019;08:23:58;Charge to 60% ;04.12.2018;FEY;;LION;49;14500;7200;224;59;95;100;8400;;4149;4151;1;13003;26.74;29.44;31,6;BCS1388054;4;2
009543;19.12.2019;11:30:18;Stop          ;04.12.2018;FEY;;LION;49;14500;7200;192;59;57;60;8400;3000;3765;3769;1;13003;34.64;36.04;34,6;BCS1388054;4;2
009543;19.12.2019;12:16:45;Cycle         ;04.12.2018;FEY;;LION;49;14500;7200;192;59;57;60;8400;3000;3776;3780;1;13004;31.14;31.84;32,7;BCS1388054;4;2
009543;20.12.2019;17:30:48;Stop          ;04.12.2018;FEY;;LION;49;14500;7200;224;60;93;100;8400;;4152;4153;1;13004;27.24;29.24;30,6;BCS1388054;4;2
009543;06.01.2020;06:34:50;Charge to 60% ;04.12.2018;FEY;;LION;49;14500;7200;224;60;92;99;8400;;4122;4123;1;13004;26.94;29.54;31,9;BCS1388054;4;2
009543;06.01.2020;09:30:33;Stop          ;04.12.2018;FEY;;LION;49;14500;7200;192;61;57;60;8400;3000;3763;3767;1;13005;33.84;35.24;33,7;BCS1388054;4;2
009543;06.01.2020;09:50:38;Fastcharge    ;04.12.2018;FEY;;LION;49;14500;7200;192;61;57;60;8400;3000;3772;3777;1;13006;32.34;32.44;32,7;BCS1388054;4;2
009543;06.01.2020;13:09:19;Stop          ;04.12.2018;FEY;;LION;49;14500;7200;224;61;94;100;8400;;4161;4162;1;13003;30.14;31.04;31,4;BCS1388054;4;2