File: reader/backup_20211101/Batterieverzeichnis_new/009702.txt
Serialnumber ; Date ; Time ; Action ; Date of Manufacture ; Manufacturer ; Battery Name ; Device-Chemistry ; Specification-Info ; Design-Capacity [mAh] ; Design-Voltage [mV] ; Battery Status ; Cycle Count ; SOC [%] ; Relativ SOC[%] ; Desired Voltage [mV]; Desired Current [mA]; Cell Voltage 1 [mV] ; Cell Voltage 2 [mV] ; Max_Error [%] ; Busvoltage[mV] ; Battery Temperature [°C] ; Charger Temperature [°C] ; Batterysystem ; Case ; PLace
009702;24.11.2020;08:56:08;Normalcharge  ;04.12.2018;FEY;;LION;49;14500;7200;192;3;65;70;8400;3000;3853;3855;1;13006;24.04;25.14;25,7;BCS1388054;1;17
009702;24.11.2020;08:59:34;Stop          ;04.12.2018;FEY;;LION;49;14500;7200;128;3;66;70;8400;3000;3867;3868;1;12919;24.44;28.44;26,4;BCS1388054;1;17
009702;24.11.2020;08:59:41;Normalcharge  ;04.12.2018;FEY;;LION;49;14500;7200;128;3;66;70;8400;3000;3864;3869;1;13002;24.44;28.24;26,4;BCS1388054;1;17
009702;24.11.2020;16:23:04;Stop          ;04.12.2018;FEY;;LION;49;14500;7200;224;3;94;100;8400;;4154;4157;1;13000;26.84;27.74;28,5;BCS1388054;1;17
009702;07.12.2020;04:14:17;Cycle         ;04.12.2018;FEY;;LION;49;14500;7200;224;3;93;100;8400;;4142;4144;1;12994;25.94;28.54;30,3;BCS1388054;1;8
009702;08.12.2020;16:19:38;Stop          ;04.12.2018;FEY;;LION;49;14500;7200;224;4;95;100;8400;;4152;4154;1;12993;27.84;29.94;31,9;BCS1388054;1;8
009702;03.03.2021;08:17:35;Normalcharge  ;04.12.2018;FEY;;LION;49;14500;7200;192;4;69;73;8400;3000;3875;3876;1;13021;23.44;23.64;23,6;BCS1388054;5;18
009702;03.03.2021;11:26:36;Stop          ;04.12.2018;FEY;;LION;49;14500;7200;224;4;95;100;8400;;4160;4161;1;13015;28.54;30.04;31,5;BCS1388054;5;18
009702;06.04.2021;08:38:46;Normalcharge  ;04.12.2018;FEY;;LION;49;14500;7200;224;4;94;99;8400;;4131;4132;1;13005;20.94;26.14;28,1;BCS1388054;2;12
009702;06.04.2021;08:39:36;Stop          ;04.12.2018;FEY;;LION;49;14500;7200;224;4;94;99;8400;;4131;4132;1;13003;21.14;26.24;28,2;BCS1388054;2;12
009702;08.04.2021;07:57:57;Normalcharge  ;04.12.2018;FEY;;LION;49;14500;7200;224;4;94;99;8400;;4130;4131;1;13005;25.54;26.34;26,3;BCS1388054;2;12
009702;08.04.2021;07:59:45;Stop          ;04.12.2018;FEY;;LION;49;14500;7200;224;4;94;99;8400;;4131;4131;1;13002;25.54;26.64;26,8;BCS1388054;2;12
009702;08.04.2021;10:35:00;Normalcharge  ;04.12.2018;FEY;;LION;49;14500;7200;224;4;94;99;8400;;4131;4131;1;13004;25.94;26.74;28,1;BCS1388054;2;12
009702;08.04.2021;10:36:53;Stop          ;04.12.2018;FEY;;LION;49;14500;7200;224;4;94;99;8400;;4131;4131;1;13002;25.94;27.24;28,9;BCS1388054;2;12
009702;18.04.2021;08:33:36;Normalcharge  ;04.12.2018;FEY;;LION;49;14500;7200;224;4;93;99;8400;;4127;4127;1;13003;26.44;27.54;27,7;BCS1388054;2;12
009702;18.04.2021;08:33:44;Stop          ;04.12.2018;FEY;;LION;49;14500;7200;224;4;93;99;8400;;4127;4127;1;13002;26.44;27.54;27,8;BCS1388054;2;12
009702;04.08.2021;07:24:55;Normalcharge  ;04.12.2018;FEY;;LION;49;14500;7200;192;4;91;96;8400;;4093;4093;1;12996;30.74;31.94;31,5;BCS1388054;2;12
009702;04.08.2021;07:25:47;Stop          ;04.12.2018;FEY;;LION;49;14500;7200;192;4;91;96;8400;;4093;4093;1;12995;30.74;32.04;31,9;BCS1388054;2;12
009702;22.08.2021;11:08:09;Normalcharge  ;04.12.2018;FEY;;LION;49;14500;7200;192;5;68;72;8400;3000;3868;3868;1;13000;23.54;28.84;32,1;BCS1388054;5;14
009702;22.08.2021;11:08:42;Stop          ;04.12.2018;FEY;;LION;49;14500;7200;128;5;68;72;8400;3000;3896;3881;1;12840;23.64;30.14;32,5;BCS1388054;5;14
009702;14.10.2021;12:39:57;Normalcharge  ;04.12.2018;FEY;;LION;49;14500;7200;192;5;44;47;8400;3000;3632;3632;1;13011;24.94;26.44;27,9;BCS1388054;2;9
009702;14.10.2021;12:41:25;Stop          ;04.12.2018;FEY;;LION;49;14500;7200;128;5;44;47;8400;3000;3720;3671;1;12584;25.04;29.64;28,2;BCS1388054;2;9
009702;01.11.2021;09:52:14;Normalcharge  ;04.12.2018;FEY;;LION;49;14500;7200;192;5;44;47;8400;3000;3631;3631;1;13012;26.04;26.14;26,3;BCS1388054;2;9
009702;01.11.2021;09:53:18;Stop          ;04.12.2018;FEY;;LION;49;14500;7200;128;5;44;47;8400;3000;3716;3669;1;12523;26.14;28.64;26,8;BCS1388054;2;9
009702;01.11.2021;10:02:05;Normalcharge  ;04.12.2018;FEY;;LION;49;14500;7200;192;5;44;47;8400;3000;3632;3632;1;13005;26.24;27.74;29,5;BCS1388054;2;9
009702;01.11.2021;10:03:24;Stop          ;04.12.2018;FEY;;LION;49;14500;7200;128;5;45;47;8400;3000;3721;3672;1;12509;26.24;30.24;29,3;BCS1388054;2;9