File: reader/backup_20211101/Batterieverzeichnis_new/009735.txt
Serialnumber ; Date ; Time ; Action ; Date of Manufacture ; Manufacturer ; Battery Name ; Device-Chemistry ; Specification-Info ; Design-Capacity [mAh] ; Design-Voltage [mV] ; Battery Status ; Cycle Count ; SOC [%] ; Relativ SOC[%] ; Desired Voltage [mV]; Desired Current [mA]; Cell Voltage 1 [mV] ; Cell Voltage 2 [mV] ; Max_Error [%] ; Busvoltage[mV] ; Battery Temperature [°C] ; Charger Temperature [°C] ; Batterysystem ; Case ; PLace
009735;29.11.2020;04:25:09;Cycle         ;04.12.2018;FEY;;LION;49;14500;7200;192;2;76;80;8400;3000;3917;3917;1;12997;25.04;25.34;25,6;BCS1388054;1;5
009735;12.01.2021;04:16:00;Charge to 90% ;04.12.2018;FEY;;LION;49;14500;7200;192;3;95;98;8400;;4127;4130;1;13001;22.94;20.74;23,0;BCS1388054;1;4
009735;12.01.2021;04:16:03;Stop          ;04.12.2018;FEY;;LION;49;14500;7200;192;3;95;98;8400;;4127;4130;1;13001;22.94;22.54;23,0;BCS1388054;1;4
009735;12.01.2021;04:17:15;Charge to 90% ;04.12.2018;FEY;;LION;49;14500;7200;192;3;95;98;8400;;4127;4130;1;13000;22.94;23.24;23,5;BCS1388054;1;4
009735;12.01.2021;04:55:18;Stop          ;04.12.2018;FEY;;LION;49;14500;7200;192;3;84;90;8400;3000;4032;4033;1;12996;26.54;31.84;31,7;BCS1388054;1;4
009735;12.01.2021;05:21:33;Cycle         ;04.12.2018;FEY;;LION;49;14500;7200;192;3;84;90;8400;3000;4050;4052;1;12995;26.74;27.24;30,6;BCS1388054;1;4
009735;13.01.2021;08:18:34;Stop          ;04.12.2018;FEY;;LION;49;14500;7200;224;4;95;100;8400;;4156;4156;1;12996;26.44;27.14;30,7;BCS1388054;1;4
009735;21.02.2021;13:43:32;Normalcharge  ;04.12.2018;FEY;;LION;49;14500;7200;192;5;39;40;8400;3000;3601;3601;1;13006;23.04;25.34;27,5;BCS1388054;2;5
009735;21.02.2021;19:27:00;Stop          ;04.12.2018;FEY;;LION;49;14500;7200;224;5;97;100;8400;;4162;4162;1;13006;26.84;28.14;31,1;BCS1388054;2;5
009735;04.04.2021;11:50:02;Normalcharge  ;04.12.2018;FEY;;LION;49;14500;7200;192;6;53;55;8400;3000;3692;3691;1;13010;24.84;26.04;27,7;BCS1388054;6;11
009735;04.04.2021;11:51:24;Stop          ;04.12.2018;FEY;;LION;49;14500;7200;128;6;53;55;8400;3000;3779;3732;1;12671;24.94;28.84;28,5;BCS1388054;6;11
009735;05.04.2021;09:38:00;Ladung auf 60% ;04.12.2018;FEY;;LION;49;14500;7200;192;6;53;55;8400;3000;3694;3693;1;13016;24.84;26.14;26,3;BCS1388054;3;3
009735;05.04.2021;10:06:07;Stop           ;04.12.2018;FEY;;LION;49;14500;7200;192;6;58;60;8400;3000;3756;3754;1;13012;26.84;29.24;31,4;BCS1388054;3;3
009735;22.08.2021;11:08:19;Normalcharge  ;04.12.2018;FEY;;LION;49;14500;7200;192;6;54;55;8400;3000;3699;3698;1;13032;29.74;29.74;32,2;BCS1388054;7;14
009735;22.08.2021;11:08:51;Stop          ;04.12.2018;FEY;;LION;49;14500;7200;128;6;54;55;8400;3000;3729;3711;1;12869;29.74;30.94;32,6;BCS1388054;7;14
009735;25.08.2021;08:15:08;Charge to 60% ;04.12.2018;FEY;;LION;49;14500;7200;192;6;54;56;8400;3000;3699;3698;1;12997;30.24;32.64;33,4;BCS1388054;4;7
009735;25.08.2021;12:59:17;Stop          ;04.12.2018;FEY;;LION;49;14500;7200;192;6;58;60;8400;3000;3746;3745;1;12996;32.74;35.34;36,6;BCS1388054;4;7
009735;01.11.2021;09:52:15;Normalcharge  ;04.12.2018;FEY;;LION;49;14500;7200;192;6;56;57;8400;3000;3715;3715;1;13001;25.64;27.04;26,3;BCS1388054;2;12
009735;01.11.2021;09:53:18;Stop          ;04.12.2018;FEY;;LION;49;14500;7200;128;6;56;57;8400;3000;3804;3755;1;12506;25.64;28.74;26,8;BCS1388054;2;12
009735;01.11.2021;10:02:05;Normalcharge  ;04.12.2018;FEY;;LION;49;14500;7200;192;6;56;57;8400;3000;3718;3718;1;12994;25.94;27.74;29,5;BCS1388054;2;12
009735;01.11.2021;10:03:24;Stop          ;04.12.2018;FEY;;LION;49;14500;7200;128;6;56;57;8400;3000;3810;3761;1;12491;25.94;29.54;29,3;BCS1388054;2;12