File: reader/backup_20211101/Batterieverzeichnis_new/009774.txt
Serialnumber ; Date ; Time ; Action ; Date of Manufacture ; Manufacturer ; Battery Name ; Device-Chemistry ; Specification-Info ; Design-Capacity [mAh] ; Design-Voltage [mV] ; Battery Status ; Cycle Count ; SOC [%] ; Relativ SOC[%] ; Desired Voltage [mV]; Desired Current [mA]; Cell Voltage 1 [mV] ; Cell Voltage 2 [mV] ; Max_Error [%] ; Busvoltage[mV] ; Battery Temperature [°C] ; Charger Temperature [°C] ; Batterysystem ; Case ; PLace
009774;07.12.2020;04:14:21;Cycle         ;04.12.2018;FEY;;LION;49;14500;7200;224;2;97;99;8400;;4144;4144;1;13002;25.74;28.74;30,3;BCS1388054;2;3
009774;08.12.2020;16:19:44;Stop          ;04.12.2018;FEY;;LION;49;14500;7200;224;3;97;100;8400;;4152;4154;1;13003;27.84;30.34;31,9;BCS1388054;2;3
009774;03.03.2021;08:17:40;Normalcharge  ;04.12.2018;FEY;;LION;49;14500;7200;192;3;69;71;8400;3000;3860;3861;1;13002;23.24;23.84;23,6;BCS1388054;6;8
009774;03.03.2021;11:56:52;Stop          ;04.12.2018;FEY;;LION;49;14500;7200;224;3;97;100;8400;;4159;4162;1;12997;28.74;29.84;31,7;BCS1388054;6;8
009774;04.04.2021;11:50:39;Normalcharge  ;04.12.2018;FEY;;LION;49;14500;7200;192;4;54;56;8400;3000;3714;3715;1;12991;25.04;26.84;28,1;BCS1388054;1;12
009774;04.04.2021;11:51:54;Stop          ;04.12.2018;FEY;;LION;49;14500;7200;128;4;55;57;8400;3000;3803;3757;1;12547;25.14;28.64;28,8;BCS1388054;1;12
009774;05.04.2021;09:37:37;Charge to 60% ;04.12.2018;FEY;;LION;49;14500;7200;192;4;55;57;8400;3000;3716;3717;1;12992;25.24;26.54;26,0;BCS1388054;1;12
009774;05.04.2021;10:01:53;Stop          ;04.12.2018;FEY;;LION;49;14500;7200;192;4;58;60;8400;3000;3766;3766;1;12989;26.84;28.04;31,2;BCS1388054;1;12
009774;22.08.2021;11:08:18;Normalcharge  ;04.12.2018;FEY;;LION;49;14500;7200;192;4;55;57;8400;3000;3706;3707;1;13018;29.94;30.14;32,2;BCS1388054;7;3
009774;22.08.2021;11:08:50;Stop          ;04.12.2018;FEY;;LION;49;14500;7200;128;4;55;57;8400;3000;3727;3717;1;12849;29.94;31.34;32,6;BCS1388054;7;3
009774;25.08.2021;08:15:19;Charge to 60% ;04.12.2018;FEY;;LION;49;14500;7200;192;4;55;57;8400;3000;3706;3707;1;12991;30.34;32.94;33,5;BCS1388054;2;2
009774;25.08.2021;10:43:16;Stop          ;04.12.2018;FEY;;LION;49;14500;7200;192;4;58;60;8400;3000;3741;3742;1;12991;32.74;35.64;36,4;BCS1388054;2;2
009774;01.11.2021;09:52:15;Normalcharge  ;04.12.2018;FEY;;LION;49;14500;7200;192;4;55;57;8400;3000;3712;3713;1;12995;25.94;26.54;26,3;BCS1388054;2;17
009774;01.11.2021;09:53:18;Stop          ;04.12.2018;FEY;;LION;49;14500;7200;128;4;55;57;8400;3000;3802;3753;1;12486;25.94;29.44;26,8;BCS1388054;2;17
009774;01.11.2021;10:02:05;Normalcharge  ;04.12.2018;FEY;;LION;49;14500;7200;192;4;55;57;8400;3000;3714;3716;1;12990;26.04;28.24;29,5;BCS1388054;2;17
009774;01.11.2021;10:03:24;Stop          ;04.12.2018;FEY;;LION;49;14500;7200;128;4;55;57;8400;3000;3807;3760;1;12481;26.14;31.24;29,3;BCS1388054;2;17