File: reader/backup_20211101/Batterieverzeichnis_new/009747.txt
Serialnumber ; Date ; Time ; Action ; Date of Manufacture ; Manufacturer ; Battery Name ; Device-Chemistry ; Specification-Info ; Design-Capacity [mAh] ; Design-Voltage [mV] ; Battery Status ; Cycle Count ; SOC [%] ; Relativ SOC[%] ; Desired Voltage [mV]; Desired Current [mA]; Cell Voltage 1 [mV] ; Cell Voltage 2 [mV] ; Max_Error [%] ; Busvoltage[mV] ; Battery Temperature [°C] ; Charger Temperature [°C] ; Batterysystem ; Case ; PLace
009747;07.12.2020;04:14:36;Cycle         ;04.12.2018;FEY;;LION;49;14500;7200;192;3;96;98;8400;;4148;4148;1;12991;25.84;27.74;30,3;BCS1388054;6;10
009747;08.12.2020;16:20:13;Stop          ;04.12.2018;FEY;;LION;49;14500;7200;192;3;96;98;8400;;4146;4145;1;12991;27.94;29.24;31,9;BCS1388054;6;10
009747;12.01.2021;04:17:40;Charge to 90% ;04.12.2018;FEY;;LION;49;14500;7200;192;3;95;97;8400;;4132;4131;1;13007;23.24;22.84;23,6;BCS1388054;6;12
009747;12.01.2021;05:00:55;Stop          ;04.12.2018;FEY;;LION;49;14500;7200;192;3;88;90;8400;3000;4064;4064;1;13001;27.84;27.04;31,2;BCS1388054;6;12
009747;12.01.2021;05:21:57;Cycle         ;04.12.2018;FEY;;LION;49;14500;7200;192;3;88;90;8400;3000;4067;4067;1;13002;27.34;26.14;30,4;BCS1388054;6;12
009747;13.01.2021;08:31:18;Stop          ;04.12.2018;FEY;;LION;49;14500;7200;224;4;97;100;8400;;4155;4153;1;13000;26.84;26.24;31,1;BCS1388054;6;12
009747;03.03.2021;08:17:17;Normalcharge  ;04.12.2018;FEY;;LION;49;14500;7200;192;4;91;95;8400;3000;4090;4090;1;13010;23.34;23.04;23,5;BCS1388054;2;14
009747;04.03.2021;07:53:46;Stop          ;04.12.2018;FEY;;LION;49;14500;7200;224;4;97;100;8400;;4146;4145;1;13001;26.54;27.84;31,6;BCS1388054;2;14
009747;04.04.2021;11:50:39;Normalcharge  ;04.12.2018;FEY;;LION;49;14500;7200;192;4;51;53;8400;3000;3678;3678;1;12995;25.14;26.34;28,1;BCS1388054;1;4
009747;04.04.2021;11:51:54;Stop          ;04.12.2018;FEY;;LION;49;14500;7200;128;4;51;53;8400;3000;3764;3720;1;12566;25.14;28.94;28,8;BCS1388054;1;4
009747;05.04.2021;09:38:11;Charge to 60% ;04.12.2018;FEY;;LION;49;14500;7200;192;4;51;53;8400;3000;3679;3680;1;13003;25.24;25.74;26,3;BCS1388054;4;15
009747;05.04.2021;10:13:52;Stop          ;04.12.2018;FEY;;LION;49;14500;7200;192;4;57;60;8400;3000;3749;3749;1;13001;27.84;30.14;32,1;BCS1388054;4;15
009747;22.08.2021;11:07:55;Normalcharge  ;04.12.2018;FEY;;LION;49;14500;7200;192;4;43;45;8400;3000;3618;3619;1;12995;22.44;31.04;32,0;BCS1388054;2;5
009747;22.08.2021;11:08:28;Stop          ;04.12.2018;FEY;;LION;49;14500;7200;128;4;43;45;8400;3000;3668;3641;1;12612;22.54;32.14;32,4;BCS1388054;2;5
009747;25.08.2021;08:14:57;Charge to 60% ;04.12.2018;FEY;;LION;49;14500;7200;192;4;43;45;8400;3000;3620;3621;1;12992;30.44;32.04;33,2;BCS1388054;6;1
009747;25.08.2021;09:50:38;Stop          ;04.12.2018;FEY;;LION;49;14500;7200;192;4;57;60;8400;3000;3735;3735;1;12973;33.74;34.74;36,4;BCS1388054;6;1
009747;01.11.2021;09:52:10;Normalcharge  ;04.12.2018;FEY;;LION;49;14500;7200;192;4;46;48;8400;3000;3637;3638;1;13007;24.74;25.14;26,4;BCS1388054;3;1
009747;01.11.2021;09:53:26;Stop           ;04.12.2018;FEY;;LION;49;14500;7200;128;4;46;48;8400;3000;3723;3677;1;12629;24.84;28.64;27,1;BCS1388054;3;1
009747;01.11.2021;10:02:09;Normalcharge  ;04.12.2018;FEY;;LION;49;14500;7200;192;4;46;48;8400;3000;3639;3640;1;13003;25.14;28.04;29,5;BCS1388054;3;1
009747;01.11.2021;10:03:20;Stop           ;04.12.2018;FEY;;LION;49;14500;7200;128;4;46;48;8400;3000;3725;3679;1;12632;25.14;30.44;29,5;BCS1388054;3;1