File: reader/backup_20211101/Batterieverzeichnis_new/009770.txt
Serialnumber ; Date ; Time ; Action ; Date of Manufacture ; Manufacturer ; Battery Name ; Device-Chemistry ; Specification-Info ; Design-Capacity [mAh] ; Design-Voltage [mV] ; Battery Status ; Cycle Count ; SOC [%] ; Relativ SOC[%] ; Desired Voltage [mV]; Desired Current [mA]; Cell Voltage 1 [mV] ; Cell Voltage 2 [mV] ; Max_Error [%] ; Busvoltage[mV] ; Battery Temperature [°C] ; Charger Temperature [°C] ; Batterysystem ; Case ; PLace
009770;07.12.2020;04:14:25;Cycle          ;04.12.2018;FEY;;LION;49;14500;7200;16576;3;98;98;;;4140;4141;1;13006;25.74;26.84;30,3;BCS1388054;3;17
009770;08.12.2020;16:19:50;Stop           ;04.12.2018;FEY;;LION;49;14500;7200;16576;3;98;98;;;4138;4138;1;13007;27.94;28.64;31,9;BCS1388054;3;17
009770;07.02.2021;08:47:06;Normalcharge  ;04.12.2018;FEY;;LION;49;14500;7200;192;4;91;90;8400;3000;4060;4059;1;13006;23.54;25.24;29,2;BCS1388054;5;1
009770;07.02.2021;11:50:11;Stop          ;04.12.2018;FEY;;LION;49;14500;7200;224;4;101;100;8400;;4149;4149;1;13005;25.74;26.74;30,0;BCS1388054;5;1
009770;03.03.2021;08:17:17;Normalcharge  ;04.12.2018;FEY;;LION;49;14500;7200;192;4;93;95;8400;3000;4084;4084;1;13011;23.24;23.64;23,5;BCS1388054;2;4
009770;04.03.2021;07:53:46;Stop          ;04.12.2018;FEY;;LION;49;14500;7200;224;4;99;100;8400;;4146;4146;1;13004;26.44;28.14;31,6;BCS1388054;2;4
009770;04.04.2021;11:50:39;Normalcharge  ;04.12.2018;FEY;;LION;49;14500;7200;192;4;52;54;8400;3000;3684;3684;1;12996;24.94;25.74;28,1;BCS1388054;1;10
009770;04.04.2021;11:51:54;Stop          ;04.12.2018;FEY;;LION;49;14500;7200;128;4;53;54;8400;3000;3774;3723;1;12550;25.04;28.54;28,8;BCS1388054;1;10
009770;05.04.2021;09:38:00;Ladung auf 60% ;04.12.2018;FEY;;LION;49;14500;7200;192;4;53;54;8400;3000;3686;3686;1;13003;25.14;25.54;26,3;BCS1388054;3;7
009770;05.04.2021;10:06:07;Stop           ;04.12.2018;FEY;;LION;49;14500;7200;128;4;58;60;8400;3000;3764;3763;1;13001;27.54;30.64;31,4;BCS1388054;3;7
009770;22.08.2021;11:08:14;Normalcharge  ;04.12.2018;FEY;;LION;49;14500;7200;192;4;54;55;8400;3000;3700;3699;1;12998;29.94;29.54;32,2;BCS1388054;6;12
009770;22.08.2021;11:08:46;Stop          ;04.12.2018;FEY;;LION;49;14500;7200;128;4;54;55;8400;3000;3733;3714;1;12789;29.94;30.54;32,5;BCS1388054;6;12
009770;25.08.2021;08:13:04;Normalcharge  ;04.12.2018;FEY;;LION;49;14500;7200;192;4;52;53;8400;3000;3680;3679;1;13016;30.44;31.34;32,4;BCS1388054;7;7
009770;25.08.2021;08:13:16;Stop          ;04.12.2018;FEY;;LION;49;14500;7200;192;4;52;53;8400;3000;3680;3679;1;13005;30.44;31.54;32,5;BCS1388054;7;7
009770;25.08.2021;08:14:41;Charge to 60% ;04.12.2018;FEY;;LION;49;14500;7200;192;4;52;53;8400;3000;3680;3679;1;13020;30.54;31.74;33,0;BCS1388054;7;7
009770;25.08.2021;08:37:46;Stop          ;04.12.2018;FEY;;LION;49;14500;7200;128;4;57;58;8400;3000;3824;3774;1;12750;32.34;39.74;36,1;BCS1388054;7;7
009770;25.08.2021;08:38:03;Charge to 60% ;04.12.2018;FEY;;LION;49;14500;7200;128;4;57;58;8400;3000;3741;3743;1;13020;32.44;38.74;36,1;BCS1388054;7;7
009770;25.08.2021;13:26:36;Stop          ;04.12.2018;FEY;;LION;49;14500;7200;192;4;58;60;8400;3000;3747;3747;1;13020;32.74;34.04;36,4;BCS1388054;7;7
009770;01.11.2021;09:51:55;Normalcharge  ;04.12.2018;FEY;;LION;49;14500;7200;192;4;56;57;8400;3000;3717;3717;1;13005;25.84;26.74;26,3;BCS1388054;6;2
009770;01.11.2021;09:53:45;Stop          ;04.12.2018;FEY;;LION;49;14500;7200;128;4;56;57;8400;3000;3813;3764;1;12642;25.94;31.44;27,3;BCS1388054;6;2
009770;01.11.2021;10:02:24;Normalcharge  ;04.12.2018;FEY;;LION;49;14500;7200;192;4;56;57;8400;3000;3722;3722;1;12999;26.04;30.04;29,5;BCS1388054;6;2
009770;01.11.2021;10:03:07;Stop          ;04.12.2018;FEY;;LION;49;14500;7200;128;4;56;57;8400;3000;3809;3759;1;12645;26.04;31.44;29,3;BCS1388054;6;2