File: reader/backup_20211101/Batterieverzeichnis_new/009748.txt
Serialnumber ; Date ; Time ; Action ; Date of Manufacture ; Manufacturer ; Battery Name ; Device-Chemistry ; Specification-Info ; Design-Capacity [mAh] ; Design-Voltage [mV] ; Battery Status ; Cycle Count ; SOC [%] ; Relativ SOC[%] ; Desired Voltage [mV]; Desired Current [mA]; Cell Voltage 1 [mV] ; Cell Voltage 2 [mV] ; Max_Error [%] ; Busvoltage[mV] ; Battery Temperature [°C] ; Charger Temperature [°C] ; Batterysystem ; Case ; PLace
009748;07.12.2020;04:14:25;Cycle          ;04.12.2018;FEY;;LION;49;14500;7200;192;2;98;98;8400;;4144;4145;1;13002;25.84;27.44;30,3;BCS1388054;3;10
009748;08.12.2020;16:19:50;Stop           ;04.12.2018;FEY;;LION;49;14500;7200;192;2;97;98;8400;;4141;4143;1;13003;28.04;29.04;31,9;BCS1388054;3;10
009748;07.02.2021;08:47:00;Normalcharge  ;04.12.2018;FEY;;LION;49;14500;7200;192;2;90;91;8400;3000;4060;4062;1;13014;23.94;24.34;29,2;BCS1388054;4;18
009748;07.02.2021;11:52:20;Stop          ;04.12.2018;FEY;;LION;49;14500;7200;224;2;100;100;8400;;4151;4153;1;13014;25.84;25.84;29,7;BCS1388054;4;18
009748;03.03.2021;08:17:21;Normalcharge  ;04.12.2018;FEY;;LION;49;14500;7200;192;2;90;93;8400;3000;4067;4068;1;13011;23.24;23.14;23,5;BCS1388054;3;9
009748;04.03.2021;07:53:40;Stop           ;04.12.2018;FEY;;LION;49;14500;7200;224;2;98;100;8400;;4148;4150;1;13006;26.74;27.64;31,5;BCS1388054;3;9
009748;04.04.2021;11:50:22;Normalcharge  ;04.12.2018;FEY;;LION;49;14500;7200;192;3;47;49;8400;3000;3644;3645;1;13007;25.34;25.44;27,9;BCS1388054;4;9
009748;04.04.2021;11:51:36;Stop          ;04.12.2018;FEY;;LION;49;14500;7200;128;3;47;49;8400;3000;3728;3683;1;12730;25.34;28.04;28,6;BCS1388054;4;9
009748;05.04.2021;09:38:17;Charge to 60% ;04.12.2018;FEY;;LION;49;14500;7200;192;3;47;49;8400;3000;3645;3646;1;12994;25.24;25.44;26,4;BCS1388054;5;13
009748;05.04.2021;10:34:50;Charge to 60% ;04.12.2018;FEY;;LION;49;14500;7200;192;3;58;60;8400;3000;3745;3750;1;12911;28.94;30.44;32,4;BCS1388054;5;13
009748;05.04.2021;13:16:09;Stop          ;04.12.2018;FEY;;LION;49;14500;7200;192;3;58;60;8400;3000;3739;3743;1;12992;27.94;29.24;32,2;BCS1388054;5;13
009748;22.08.2021;11:37:30;Normalcharge  ;04.12.2018;FEY;;LION;49;14500;7200;192;3;53;55;8400;3000;3694;3695;1;13003;21.84;28.34;31,9;BCS1388054;3;9
009748;22.08.2021;11:38:19;Stop           ;04.12.2018;FEY;;LION;49;14500;7200;128;3;53;55;8400;3000;3780;3734;1;12566;22.04;30.34;32,1;BCS1388054;3;9
009748;25.08.2021;08:15:15;Ladung auf 60% ;04.12.2018;FEY;;LION;49;14500;7200;192;3;54;55;8400;3000;3696;3698;1;12998;30.64;31.74;33,4;BCS1388054;3;9
009748;25.08.2021;08:40:44;Stop           ;04.12.2018;FEY;;LION;49;14500;7200;192;3;58;60;8400;3000;3753;3760;1;12997;32.44;34.54;36,1;BCS1388054;3;9
009748;01.11.2021;09:52:01;Normalcharge  ;04.12.2018;FEY;;LION;49;14500;7200;192;3;55;57;8400;3000;3717;3719;1;13015;25.94;26.94;26,3;BCS1388054;5;15
009748;01.11.2021;09:53:41;Stop          ;04.12.2018;FEY;;LION;49;14500;7200;128;3;56;57;8400;3000;3811;3764;1;12588;25.94;30.84;27,3;BCS1388054;5;15
009748;01.11.2021;10:02:19;Normalcharge  ;04.12.2018;FEY;;LION;49;14500;7200;192;3;56;57;8400;3000;3721;3724;1;13010;26.04;28.94;29,5;BCS1388054;5;15
009748;01.11.2021;10:03:11;Stop          ;04.12.2018;FEY;;LION;49;14500;7200;128;3;56;57;8400;3000;3809;3763;1;12586;26.14;31.04;29,3;BCS1388054;5;15