File: reader/backup_20211101/Batterieverzeichnis_new/009784.txt
Serialnumber ; Date ; Time ; Action ; Date of Manufacture ; Manufacturer ; Battery Name ; Device-Chemistry ; Specification-Info ; Design-Capacity [mAh] ; Design-Voltage [mV] ; Battery Status ; Cycle Count ; SOC [%] ; Relativ SOC[%] ; Desired Voltage [mV]; Desired Current [mA]; Cell Voltage 1 [mV] ; Cell Voltage 2 [mV] ; Max_Error [%] ; Busvoltage[mV] ; Battery Temperature [°C] ; Charger Temperature [°C] ; Batterysystem ; Case ; PLace
009784;07.02.2021;08:46:42;Normalcharge  ;04.12.2018;FEY;;LION;49;14500;7200;192;3;95;98;8400;;4118;4118;1;12991;23.94;26.74;29,2;BCS1388054;1;2
009784;07.02.2021;11:52:07;Stop          ;04.12.2018;FEY;;LION;49;14500;7200;192;3;95;98;8400;;4119;4118;1;12991;25.94;27.84;29,7;BCS1388054;1;2
009784;03.03.2021;08:17:21;Normalcharge  ;04.12.2018;FEY;;LION;49;14500;7200;192;3;90;93;8400;3000;4069;4069;1;13001;23.34;22.84;23,5;BCS1388054;3;6
009784;04.03.2021;07:53:40;Stop           ;04.12.2018;FEY;;LION;49;14500;7200;224;3;97;100;8400;;4148;4148;1;12994;26.54;26.64;31,5;BCS1388054;3;6
009784;04.04.2021;11:50:10;Normalcharge  ;04.12.2018;FEY;;LION;49;14500;7200;192;4;53;55;8400;3000;3696;3695;1;13018;25.24;26.94;27,8;BCS1388054;5;5
009784;04.04.2021;11:51:30;Stop          ;04.12.2018;FEY;;LION;49;14500;7200;128;4;53;55;8400;3000;3783;3736;1;12688;25.24;29.54;28,5;BCS1388054;5;5
009784;05.04.2021;09:38:00;Ladung auf 60% ;04.12.2018;FEY;;LION;49;14500;7200;192;4;53;55;8400;3000;3698;3698;1;13003;25.24;25.74;26,3;BCS1388054;3;9
009784;05.04.2021;10:06:07;Stop           ;04.12.2018;FEY;;LION;49;14500;7200;192;4;57;60;8400;3000;3761;3761;1;13002;27.34;29.04;31,4;BCS1388054;3;9
009784;22.08.2021;11:08:19;Normalcharge  ;04.12.2018;FEY;;LION;49;14500;7200;192;4;53;56;8400;3000;3703;3703;1;13025;29.94;30.24;32,2;BCS1388054;7;18
009784;22.08.2021;11:08:51;Stop          ;04.12.2018;FEY;;LION;49;14500;7200;128;4;53;56;8400;3000;3732;3715;1;12845;29.94;31.44;32,6;BCS1388054;7;18
009784;25.08.2021;08:15:08;Charge to 60% ;04.12.2018;FEY;;LION;49;14500;7200;192;4;53;55;8400;3000;3703;3703;1;12998;30.64;31.64;33,4;BCS1388054;4;8
009784;25.08.2021;12:59:17;Stop          ;04.12.2018;FEY;;LION;49;14500;7200;192;4;57;60;8400;3000;3756;3756;1;12996;33.14;34.24;36,6;BCS1388054;4;8
009784;01.11.2021;09:52:21;Normalcharge  ;04.12.2018;FEY;;LION;49;14500;7200;192;4;55;57;8400;3000;3724;3724;1;12996;26.14;27.14;26,4;BCS1388054;1;8
009784;01.11.2021;09:53:14;Stop          ;04.12.2018;FEY;;LION;49;14500;7200;128;4;55;57;8400;3000;3807;3762;1;12477;26.14;29.34;26,8;BCS1388054;1;8
009784;01.11.2021;10:01:59;Normalcharge  ;04.12.2018;FEY;;LION;49;14500;7200;192;4;55;57;8400;3000;3726;3726;1;12991;26.34;28.94;29,5;BCS1388054;1;8
009784;01.11.2021;10:03:29;Stop          ;04.12.2018;FEY;;LION;49;14500;7200;128;4;55;58;8400;3000;3814;3769;1;12466;26.34;31.54;29,3;BCS1388054;1;8