File: reader/backup_20211101/Batterieverzeichnis_new/009716.txt
Serialnumber ; Date ; Time ; Action ; Date of Manufacture ; Manufacturer ; Battery Name ; Device-Chemistry ; Specification-Info ; Design-Capacity [mAh] ; Design-Voltage [mV] ; Battery Status ; Cycle Count ; SOC [%] ; Relativ SOC[%] ; Desired Voltage [mV]; Desired Current [mA]; Cell Voltage 1 [mV] ; Cell Voltage 2 [mV] ; Max_Error [%] ; Busvoltage[mV] ; Battery Temperature [°C] ; Charger Temperature [°C] ; Batterysystem ; Case ; PLace
009716;02.12.2020;11:43:08;Cycle         ;04.12.2018;FEY;;LION;49;14500;7200;192;1;79;80;8400;3000;3934;3934;1;12993;25.84;27.04;28,4;BCS1388054;1;4
009716;03.12.2020;15:31:47;Stop          ;04.12.2018;FEY;;LION;49;14500;7200;224;2;97;100;8400;;4156;4155;1;12993;26.64;27.44;28,8;BCS1388054;1;4
009716;03.12.2020;17:28:02;Normalcharge  ;04.12.2018;FEY;;LION;49;14500;7200;224;2;97;100;8400;;4154;4154;1;12993;26.54;27.44;28,9;BCS1388054;1;4
009716;03.03.2021;08:17:17;Normalcharge  ;04.12.2018;FEY;;LION;49;14500;7200;192;2;92;95;8400;3000;4090;4090;1;13012;23.14;23.64;23,5;BCS1388054;2;8
009716;04.03.2021;07:53:46;Stop          ;04.12.2018;FEY;;LION;49;14500;7200;224;2;97;100;8400;;4148;4147;1;13003;26.44;28.24;31,6;BCS1388054;2;8
009716;04.04.2021;11:50:10;Normalcharge  ;04.12.2018;FEY;;LION;49;14500;7200;192;2;52;54;8400;3000;3690;3690;1;13005;24.74;26.64;27,8;BCS1388054;5;3
009716;04.04.2021;11:51:30;Stop          ;04.12.2018;FEY;;LION;49;14500;7200;128;2;52;54;8400;3000;3777;3730;1;12680;24.84;29.74;28,5;BCS1388054;5;3
009716;05.04.2021;09:38:11;Charge to 60% ;04.12.2018;FEY;;LION;49;14500;7200;192;2;52;55;8400;3000;3692;3692;1;12996;24.94;26.54;26,3;BCS1388054;4;3
009716;05.04.2021;10:13:52;Stop          ;04.12.2018;FEY;;LION;49;14500;7200;192;2;57;60;8400;3000;3758;3758;1;12993;27.14;30.04;32,1;BCS1388054;4;3
009716;22.08.2021;11:07:55;Normalcharge  ;04.12.2018;FEY;;LION;49;14500;7200;192;2;44;46;8400;3000;3619;3619;1;12993;22.44;30.74;32,0;BCS1388054;2;4
009716;22.08.2021;11:08:28;Stop          ;04.12.2018;FEY;;LION;49;14500;7200;128;2;44;46;8400;3000;3666;3640;1;12620;22.44;31.84;32,4;BCS1388054;2;4
009716;25.08.2021;08:14:57;Charge to 60% ;04.12.2018;FEY;;LION;49;14500;7200;192;2;44;45;8400;3000;3622;3622;1;12998;30.34;34.04;33,2;BCS1388054;6;2
009716;25.08.2021;09:50:39;Stop          ;04.12.2018;FEY;;LION;49;14500;7200;192;2;57;60;8400;3000;3733;3733;1;12997;33.84;36.94;36,4;BCS1388054;6;2
009716;01.11.2021;09:52:06;Normalcharge  ;04.12.2018;FEY;;LION;49;14500;7200;192;2;43;44;8400;3000;3621;3621;1;13009;24.24;25.64;26,3;BCS1388054;4;12
009716;01.11.2021;09:53:35;Stop          ;04.12.2018;FEY;;LION;49;14500;7200;128;2;43;45;8400;3000;3710;3661;1;12605;24.34;27.94;27,1;BCS1388054;4;12
009716;01.11.2021;10:02:14;Normalcharge  ;04.12.2018;FEY;;LION;49;14500;7200;192;2;43;45;8400;3000;3623;3623;1;13007;24.94;26.94;29,5;BCS1388054;4;12
009716;01.11.2021;10:03:16;Stop          ;04.12.2018;FEY;;LION;49;14500;7200;128;2;43;45;8400;3000;3709;3661;1;12585;25.04;28.54;29,3;BCS1388054;4;12