File: reader/backup_20211101/Batterieverzeichnis_new/009822.txt
Serialnumber ; Date ; Time ; Action ; Date of Manufacture ; Manufacturer ; Battery Name ; Device-Chemistry ; Specification-Info ; Design-Capacity [mAh] ; Design-Voltage [mV] ; Battery Status ; Cycle Count ; SOC [%] ; Relativ SOC[%] ; Desired Voltage [mV]; Desired Current [mA]; Cell Voltage 1 [mV] ; Cell Voltage 2 [mV] ; Max_Error [%] ; Busvoltage[mV] ; Battery Temperature [°C] ; Charger Temperature [°C] ; Batterysystem ; Case ; PLace
009822;07.12.2020;04:14:25;Cycle          ;04.12.2018;FEY;;LION;49;14500;7200;224;2;97;99;8400;;4137;4139;1;13000;25.44;27.54;30,3;BCS1388054;3;2
009822;08.12.2020;16:19:50;Stop           ;04.12.2018;FEY;;LION;49;14500;7200;224;4;97;100;8400;;4150;4153;1;12999;27.74;29.34;31,9;BCS1388054;3;2
009822;03.03.2021;08:17:29;Normalcharge  ;04.12.2018;FEY;;LION;49;14500;7200;192;4;86;89;8400;3000;4025;4026;1;13009;22.94;23.84;23,5;BCS1388054;4;7
009822;03.03.2021;10:32:46;Stop          ;04.12.2018;FEY;;LION;49;14500;7200;224;4;97;100;8400;;4155;4157;1;13004;28.24;30.34;32,0;BCS1388054;4;7
009822;04.04.2021;11:50:33;Normalcharge  ;04.12.2018;FEY;;LION;49;14500;7200;192;4;59;61;8400;3000;3756;3761;1;13001;24.74;26.74;27,9;BCS1388054;2;12
009822;04.04.2021;11:51:48;Stop          ;04.12.2018;FEY;;LION;49;14500;7200;128;4;59;61;8400;3000;3849;3807;1;12580;24.84;28.74;28,6;BCS1388054;2;12
009822;05.04.2021;09:37:37;Charge to 60% ;04.12.2018;FEY;;LION;49;14500;7200;192;4;59;61;8400;3000;3760;3764;1;12993;24.84;25.74;26,0;BCS1388054;1;4
009822;05.04.2021;10:01:53;Stop          ;04.12.2018;FEY;;LION;49;14500;7200;192;4;58;60;8400;3000;3743;3746;1;12991;25.64;27.84;31,2;BCS1388054;1;4
009822;22.08.2021;11:08:18;Normalcharge  ;04.12.2018;FEY;;LION;49;14500;7200;192;4;54;55;8400;3000;3701;3703;1;13024;29.64;30.24;32,2;BCS1388054;7;7
009822;22.08.2021;11:08:51;Stop          ;04.12.2018;FEY;;LION;49;14500;7200;128;4;54;55;8400;3000;3731;3716;1;12842;29.64;31.54;32,6;BCS1388054;7;7
009822;25.08.2021;08:15:15;Ladung auf 60% ;04.12.2018;FEY;;LION;49;14500;7200;192;4;54;56;8400;3000;3701;3702;1;12993;30.04;30.44;33,4;BCS1388054;3;11
009822;25.08.2021;08:40:44;Stop           ;04.12.2018;FEY;;LION;49;14500;7200;192;4;58;60;8400;3000;3753;3756;1;12994;31.94;32.64;36,1;BCS1388054;3;11
009822;01.11.2021;09:52:00;Normalcharge  ;04.12.2018;FEY;;LION;49;14500;7200;192;4;55;57;8400;3000;3718;3719;1;13015;25.54;26.14;26,3;BCS1388054;5;2
009822;01.11.2021;09:53:40;Stop          ;04.12.2018;FEY;;LION;49;14500;7200;128;4;56;58;8400;3000;3813;3764;1;12616;25.64;30.54;27,3;BCS1388054;5;2
009822;01.11.2021;10:02:19;Normalcharge  ;04.12.2018;FEY;;LION;49;14500;7200;192;4;56;58;8400;3000;3723;3724;1;13010;25.74;29.04;29,5;BCS1388054;5;2
009822;01.11.2021;10:03:11;Stop          ;04.12.2018;FEY;;LION;49;14500;7200;128;4;56;58;8400;3000;3810;3765;1;12612;25.74;31.04;29,3;BCS1388054;5;2