File: reader/backup_20211101/Batterieverzeichnis_new/009839.txt
Serialnumber ; Date ; Time ; Action ; Date of Manufacture ; Manufacturer ; Battery Name ; Device-Chemistry ; Specification-Info ; Design-Capacity [mAh] ; Design-Voltage [mV] ; Battery Status ; Cycle Count ; SOC [%] ; Relativ SOC[%] ; Desired Voltage [mV]; Desired Current [mA]; Cell Voltage 1 [mV] ; Cell Voltage 2 [mV] ; Max_Error [%] ; Busvoltage[mV] ; Battery Temperature [°C] ; Charger Temperature [°C] ; Batterysystem ; Case ; PLace
009839;01.12.2020;07:38:36;Cycle         ;03.12.2018;FEY;;LION;49;14500;7200;192;3;41;41;8400;3000;3601;3602;1;13009;24.94;26.34;28,8;BCS1388054;2;3
009839;02.12.2020;16:21:01;Stop          ;03.12.2018;FEY;;LION;49;14500;7200;224;4;97;99;8400;;4154;4155;1;13003;26.04;29.14;29,3;BCS1388054;2;3
009839;03.03.2021;08:17:35;Normalcharge  ;03.12.2018;FEY;;LION;49;14500;7200;192;5;76;79;8400;3000;3923;3924;1;13006;22.54;22.84;23,6;BCS1388054;5;6
009839;03.03.2021;11:26:36;Stop          ;03.12.2018;FEY;;LION;49;14500;7200;224;5;97;100;8400;;4156;4156;1;13001;27.44;27.64;31,5;BCS1388054;5;6
009839;04.04.2021;11:50:39;Normalcharge  ;03.12.2018;FEY;;LION;49;14500;7200;192;5;53;55;8400;3000;3694;3695;1;12998;24.34;27.74;28,1;BCS1388054;1;15
009839;04.04.2021;11:51:54;Stop          ;03.12.2018;FEY;;LION;49;14500;7200;128;5;53;55;8400;3000;3784;3734;1;12551;24.44;30.64;28,8;BCS1388054;1;15
009839;05.04.2021;09:38:00;Ladung auf 60% ;03.12.2018;FEY;;LION;49;14500;7200;192;5;53;55;8400;3000;3697;3697;1;13004;24.54;25.74;26,3;BCS1388054;3;12
009839;05.04.2021;10:06:07;Stop           ;03.12.2018;FEY;;LION;49;14500;7200;192;5;57;60;8400;3000;3763;3762;1;13001;26.64;28.04;31,4;BCS1388054;3;12
009839;22.08.2021;11:07:51;Normalcharge  ;03.12.2018;FEY;;LION;49;14500;7200;192;5;49;51;8400;3000;3650;3650;1;12992;21.94;30.84;32,0;BCS1388054;1;14
009839;22.08.2021;11:08:24;Stop          ;03.12.2018;FEY;;LION;49;14500;7200;128;5;49;51;8400;3000;3705;3675;1;12592;22.04;32.04;32,4;BCS1388054;1;14
009839;25.08.2021;08:15:02;Charge to 60% ;03.12.2018;FEY;;LION;49;14500;7200;192;5;49;51;8400;3000;3653;3653;1;12994;29.64;31.14;33,2;BCS1388054;5;10
009839;25.08.2021;13:03:31;Stop          ;03.12.2018;FEY;;LION;49;14500;7200;192;5;58;60;8400;3000;3728;3728;1;12992;32.24;33.44;36,6;BCS1388054;5;10
009839;01.11.2021;09:52:21;Normalcharge  ;03.12.2018;FEY;;LION;49;14500;7200;192;5;54;56;8400;3000;3700;3701;1;12997;25.34;27.44;26,4;BCS1388054;1;15
009839;01.11.2021;09:53:14;Stop          ;03.12.2018;FEY;;LION;49;14500;7200;128;5;54;56;8400;3000;3788;3741;1;12455;25.34;29.94;26,8;BCS1388054;1;15
009839;01.11.2021;10:01:59;Normalcharge  ;03.12.2018;FEY;;LION;49;14500;7200;192;5;54;56;8400;3000;3702;3703;1;12992;25.44;29.44;29,5;BCS1388054;1;15
009839;01.11.2021;10:03:29;Stop          ;03.12.2018;FEY;;LION;49;14500;7200;128;5;54;56;8400;3000;3795;3748;1;12455;25.54;32.54;29,3;BCS1388054;1;15