File: reader/backup_20210408/Batterieverzeichnis/001099.txt
Serialnumber ; Date ; Time ; Action ; Date of Manufacture ; Manufacturer ; Battery Name ; Device-Chemistry ; Specification-Info ; Design-Capacity [mAh] ; Design-Voltage [mV] ; Battery Status ; Cycle Count ; SOC [%] ; Relativ SOC[%] ; Desired Voltage [mV]; Desired Current [mA]; Cell Voltage 1 [mV] ; Cell Voltage 2 [mV] ; Max_Error [%] ; Busvoltage[mV] ; Battery Temperature [°C] ; Charger Temperature [°C] ; Batterysystem ; Case ; PLace
001099;10.12.2019;15:29:15;Charge to 30% ;15.02.2018;FEY;;LION;49;14500;7200;224;23;93;99;8400;;4123;4122;1;13015;22.74;24.64;27,1;BCS1388054;7;9
001099;10.12.2019;20:46:56;Stop          ;15.02.2018;FEY;;LION;49;14500;7200;192;24;29;30;8400;3000;3557;3557;1;13012;33.24;31.64;33,5;BCS1388054;7;9
001099;11.12.2019;08:49:12;Fastcharge    ;15.02.2018;FEY;;LION;49;14500;7200;192;24;29;30;8400;3000;3566;3566;1;13013;26.34;27.44;31,9;BCS1388054;7;9
001099;11.12.2019;13:38:42;Stop          ;15.02.2018;FEY;;LION;49;14500;7200;224;24;95;100;8400;;4163;4164;1;13013;30.44;29.34;32,7;BCS1388054;7;9
001099;11.12.2019;15:46:56;Charge to 10% ;15.02.2018;FEY;;LION;49;14500;7200;224;24;96;100;8400;;4156;4157;1;13013;27.24;27.64;31,2;BCS1388054;7;9
001099;11.12.2019;22:51:50;Stop          ;15.02.2018;FEY;;LION;49;14500;7200;192;25;10;10;8400;3000;3353;3354;1;13012;34.14;31.44;33,0;BCS1388054;7;9
001099;12.12.2019;08:45:27;Normalcharge  ;15.02.2018;FEY;;LION;49;14500;7200;192;25;9;9;8400;3000;3362;3362;1;13013;26.54;27.44;31,7;BCS1388054;7;9
001099;12.12.2019;16:41:08;Stop          ;15.02.2018;FEY;;LION;49;14500;7200;224;25;96;100;8400;;4161;4161;1;13012;29.44;28.64;31,6;BCS1388054;7;9
001099;13.12.2019;10:48:13;Charge to 10% ;15.02.2018;FEY;;LION;49;14500;7200;224;25;96;100;8400;;4150;4151;1;13013;26.54;27.64;32,0;BCS1388054;7;9
001099;13.12.2019;13:48:48;Stop          ;15.02.2018;FEY;;LION;49;14500;7200;192;26;58;61;8400;3000;3684;3735;1;13520;34.34;38.34;36,8;BCS1388054;7;9
001099;16.12.2019;07:43:27;Charge to 10% ;15.02.2018;FEY;;LION;49;14500;7200;192;26;60;63;8400;3000;3785;3787;1;13024;23.04;28.34;31,7;BCS1388054;6;15
001099;16.12.2019;14:43:10;Stop          ;15.02.2018;FEY;;LION;49;14500;7200;192;26;10;10;8400;3000;3359;3360;1;13021;30.34;32.54;31,7;BCS1388054;6;15
001099;16.12.2019;14:44:21;Charge to 90% ;15.02.2018;FEY;;LION;49;14500;7200;192;26;10;10;8400;3000;3359;3360;1;13022;30.34;32.34;31,9;BCS1388054;6;15
001099;16.12.2019;20:54:26;Stop          ;15.02.2018;FEY;;LION;49;14500;7200;192;26;84;90;8400;3000;4031;4030;1;13023;32.34;33.24;32,1;BCS1388054;6;15
001099;17.12.2019;08:37:58;Fastcharge    ;15.02.2018;FEY;;LION;49;14500;7200;192;26;84;90;8400;3000;4024;4023;1;13022;26.74;28.94;31,6;BCS1388054;6;15
001099;17.12.2019;13:38:40;Charge to 10% ;15.02.2018;FEY;;LION;49;14500;7200;224;26;94;100;8400;;4153;4151;1;13022;27.14;29.14;30,8;BCS1388054;6;15
001099;17.12.2019;20:41:41;Stop          ;15.02.2018;FEY;;LION;49;14500;7200;192;27;10;10;8400;3000;3355;3354;1;13022;34.74;35.34;32,6;BCS1388054;6;15
001099;18.12.2019;08:31:34;Fastcharge    ;15.02.2018;FEY;;LION;49;14500;7200;192;27;9;10;8400;3000;3364;3364;1;13022;26.84;29.14;31,6;BCS1388054;6;15
001099;18.12.2019;14:33:31;Stop          ;15.02.2018;FEY;;LION;49;14500;7200;224;27;94;100;8400;;4161;4159;1;13023;30.74;31.14;31,4;BCS1388054;6;15
001099;19.12.2019;08:24:06;Charge to 60% ;15.02.2018;FEY;;LION;49;14500;7200;224;27;95;100;8400;;4151;4149;1;13022;26.84;29.04;31,5;BCS1388054;6;15
001099;19.12.2019;11:34:24;Stop          ;15.02.2018;FEY;;LION;49;14500;7200;192;28;58;60;8400;3000;3769;3769;1;13021;34.24;35.04;33,5;BCS1388054;6;15
001099;19.12.2019;12:16:53;Cycle         ;15.02.2018;FEY;;LION;49;14500;7200;192;28;58;60;8400;3000;3777;3778;1;13022;31.14;31.34;32,7;BCS1388054;6;15
001099;20.12.2019;17:31:05;Stop          ;15.02.2018;FEY;;LION;49;14500;7200;224;29;94;100;8400;;4154;4152;1;13024;27.24;28.94;30,6;BCS1388054;6;15
001099;06.01.2020;06:34:58;Charge to 60% ;15.02.2018;FEY;;LION;49;14500;7200;192;29;93;98;8400;;4123;4122;1;13023;27.04;29.24;31,9;BCS1388054;6;15
001099;06.01.2020;09:30:42;Stop          ;15.02.2018;FEY;;LION;49;14500;7200;192;30;57;60;8400;3000;3767;3767;1;13022;33.64;36.44;33,7;BCS1388054;6;15
001099;06.01.2020;09:50:46;Fastcharge    ;15.02.2018;FEY;;LION;49;14500;7200;192;30;57;60;8400;3000;3776;3777;1;13024;32.14;32.04;32,7;BCS1388054;6;15
001099;06.01.2020;13:06:22;Stop          ;15.02.2018;FEY;;LION;49;14500;7200;224;30;95;100;8400;;4162;4161;1;13023;30.54;31.34;32,1;BCS1388054;6;15