File: reader/backup_20210408/Batterieverzeichnis/001074.txt
Serialnumber ; Date ; Time ; Action ; Date of Manufacture ; Manufacturer ; Battery Name ; Device-Chemistry ; Specification-Info ; Design-Capacity [mAh] ; Design-Voltage [mV] ; Battery Status ; Cycle Count ; SOC [%] ; Relativ SOC[%] ; Desired Voltage [mV]; Desired Current [mA]; Cell Voltage 1 [mV] ; Cell Voltage 2 [mV] ; Max_Error [%] ; Busvoltage[mV] ; Battery Temperature [°C] ; Charger Temperature [°C] ; Batterysystem ; Case ; PLace
001074;10.12.2019;15:29:15;Charge to 30% ;15.02.2018;FEY;;LION;49;14500;7200;224;22;92;99;8400;;4123;4122;1;13023;22.34;24.84;27,1;BCS1388054;7;10
001074;10.12.2019;20:46:56;Stop          ;15.02.2018;FEY;;LION;49;14500;7200;192;23;28;30;8400;3000;3559;3560;1;13022;32.34;31.74;33,5;BCS1388054;7;10
001074;11.12.2019;08:49:12;Fastcharge    ;15.02.2018;FEY;;LION;49;14500;7200;192;23;28;30;8400;3000;3567;3567;1;13022;25.84;27.64;31,9;BCS1388054;7;10
001074;11.12.2019;13:38:42;Stop          ;15.02.2018;FEY;;LION;49;14500;7200;224;23;94;100;8400;;4161;4162;1;13022;29.44;29.54;32,7;BCS1388054;7;10
001074;11.12.2019;15:46:56;Charge to 10% ;15.02.2018;FEY;;LION;49;14500;7200;224;23;95;100;8400;;4155;4155;1;13023;26.64;27.74;31,2;BCS1388054;7;10
001074;11.12.2019;22:51:50;Stop          ;15.02.2018;FEY;;LION;49;14500;7200;192;24;10;10;8400;3000;3353;3355;1;13023;32.94;31.54;33,0;BCS1388054;7;10
001074;12.12.2019;08:45:27;Normalcharge  ;15.02.2018;FEY;;LION;49;14500;7200;192;24;9;9;8400;3000;3361;3363;1;13022;26.04;27.64;31,7;BCS1388054;7;10
001074;12.12.2019;16:41:08;Stop          ;15.02.2018;FEY;;LION;49;14500;7200;224;24;95;100;8400;;4160;4160;1;13022;28.64;28.74;31,6;BCS1388054;7;10
001074;13.12.2019;10:48:13;Charge to 10% ;15.02.2018;FEY;;LION;49;14500;7200;224;24;95;100;8400;;4150;4150;1;13023;26.04;27.84;32,0;BCS1388054;7;10
001074;13.12.2019;13:48:48;Stop          ;15.02.2018;FEY;;LION;49;14500;7200;192;24;57;61;8400;3000;3677;3734;1;13536;33.64;38.94;36,8;BCS1388054;7;10
001074;16.12.2019;07:43:27;Charge to 10% ;15.02.2018;FEY;;LION;49;14500;7200;192;24;60;63;8400;3000;3782;3785;1;13005;22.64;27.34;31,7;BCS1388054;6;18
001074;16.12.2019;14:43:10;Stop          ;15.02.2018;FEY;;LION;49;14500;7200;192;25;9;10;8400;3000;3349;3351;1;13005;29.24;30.94;31,7;BCS1388054;6;18
001074;16.12.2019;14:44:21;Charge to 90% ;15.02.2018;FEY;;LION;49;14500;7200;192;25;9;10;8400;3000;3349;3351;1;13003;29.14;30.94;31,9;BCS1388054;6;18
001074;16.12.2019;20:54:26;Stop          ;15.02.2018;FEY;;LION;49;14500;7200;192;25;84;90;8400;3000;4031;4030;1;13005;30.34;31.94;32,1;BCS1388054;6;18
001074;17.12.2019;08:37:58;Fastcharge    ;15.02.2018;FEY;;LION;49;14500;7200;192;25;85;90;8400;3000;4023;4023;1;13004;26.24;28.14;31,6;BCS1388054;6;18
001074;17.12.2019;13:38:40;Charge to 10% ;15.02.2018;FEY;;LION;49;14500;7200;224;25;94;100;8400;;4153;4150;1;13004;26.44;28.24;30,8;BCS1388054;6;18
001074;17.12.2019;20:41:41;Stop          ;15.02.2018;FEY;;LION;49;14500;7200;192;26;10;10;8400;3000;3352;3353;1;13004;32.24;33.84;32,6;BCS1388054;6;18
001074;18.12.2019;08:31:34;Fastcharge    ;15.02.2018;FEY;;LION;49;14500;7200;192;26;9;9;8400;3000;3361;3362;1;13004;26.34;28.24;31,6;BCS1388054;6;18
001074;18.12.2019;14:33:31;Stop          ;15.02.2018;FEY;;LION;49;14500;7200;224;26;92;100;8400;;4160;4158;1;13004;28.84;30.24;31,4;BCS1388054;6;18
001074;19.12.2019;08:24:06;Charge to 60% ;15.02.2018;FEY;;LION;49;14500;7200;224;26;94;100;8400;;4149;4147;1;13004;26.24;28.14;31,5;BCS1388054;6;18
001074;19.12.2019;11:34:24;Stop          ;15.02.2018;FEY;;LION;49;14500;7200;192;27;57;60;8400;3000;3771;3774;1;13003;32.34;33.74;33,5;BCS1388054;6;18
001074;19.12.2019;12:16:53;Cycle         ;15.02.2018;FEY;;LION;49;14500;7200;192;27;57;60;8400;3000;3778;3781;1;13004;29.14;30.44;32,7;BCS1388054;6;18
001074;20.12.2019;17:31:05;Stop          ;15.02.2018;FEY;;LION;49;14500;7200;224;28;92;100;8400;;4154;4153;1;13006;26.44;28.04;30,6;BCS1388054;6;18
001074;06.01.2020;06:34:58;Charge to 60% ;15.02.2018;FEY;;LION;49;14500;7200;192;28;91;98;8400;;4123;4122;1;13005;26.44;28.24;31,9;BCS1388054;6;18
001074;06.01.2020;09:30:42;Stop          ;15.02.2018;FEY;;LION;49;14500;7200;192;28;56;60;8400;3000;3767;3770;1;13005;31.94;34.24;33,7;BCS1388054;6;18
001074;06.01.2020;09:50:46;Fastcharge    ;15.02.2018;FEY;;LION;49;14500;7200;192;28;56;60;8400;3000;3775;3779;1;13005;30.14;31.04;32,7;BCS1388054;6;18
001074;06.01.2020;13:06:22;Stop          ;15.02.2018;FEY;;LION;49;14500;7200;224;28;93;100;8400;;4162;4161;1;13006;28.64;30.44;32,1;BCS1388054;6;18