File: reader/backup_20210408/Batterieverzeichnis/009541.txt
Serialnumber ; Date ; Time ; Action ; Date of Manufacture ; Manufacturer ; Battery Name ; Device-Chemistry ; Specification-Info ; Design-Capacity [mAh] ; Design-Voltage [mV] ; Battery Status ; Cycle Count ; SOC [%] ; Relativ SOC[%] ; Desired Voltage [mV]; Desired Current [mA]; Cell Voltage 1 [mV] ; Cell Voltage 2 [mV] ; Max_Error [%] ; Busvoltage[mV] ; Battery Temperature [°C] ; Charger Temperature [°C] ; Batterysystem ; Case ; PLace
009541;10.12.2019;15:29:01;Charge to 30% ;04.12.2018;FEY;;LION;49;14500;7200;224;48;93;99;8400;;4129;4129;1;13017;22.84;25.44;27,1;BCS1388054;5;15
009541;10.12.2019;20:48:54;Stop          ;04.12.2018;FEY;;LION;49;14500;7200;192;48;29;30;8400;3000;3560;3562;1;13012;34.04;35.64;33,1;BCS1388054;5;15
009541;11.12.2019;08:48:53;Fastcharge    ;04.12.2018;FEY;;LION;49;14500;7200;192;48;29;30;8400;3000;3568;3570;1;13013;26.84;29.44;31,9;BCS1388054;5;15
009541;11.12.2019;13:40:11;Stop          ;04.12.2018;FEY;;LION;49;14500;7200;224;48;95;100;8400;;4162;4162;1;13013;30.94;32.44;32,4;BCS1388054;5;15
009541;11.12.2019;15:46:40;Charge to 10% ;04.12.2018;FEY;;LION;49;14500;7200;224;48;96;100;8400;;4153;4153;1;13013;27.74;29.84;31,4;BCS1388054;5;15
009541;11.12.2019;22:49:07;Stop          ;04.12.2018;FEY;;LION;49;14500;7200;192;50;10;10;8400;3000;3357;3359;1;13012;34.94;36.34;33,5;BCS1388054;5;15
009541;12.12.2019;08:45:10;Normalcharge  ;04.12.2018;FEY;;LION;49;14500;7200;192;50;9;10;8400;3000;3366;3368;1;13013;27.04;29.54;31,7;BCS1388054;5;15
009541;12.12.2019;16:41:20;Stop          ;04.12.2018;FEY;;LION;49;14500;7200;224;50;96;100;8400;;4160;4162;1;13013;29.94;31.54;31,6;BCS1388054;5;15
009541;13.12.2019;10:48:05;Charge to 10% ;04.12.2018;FEY;;LION;49;14500;7200;224;50;96;100;8400;;4148;4150;1;13013;27.04;29.64;32,0;BCS1388054;5;15
009541;13.12.2019;15:40:55;Stop          ;04.12.2018;FEY;;LION;49;14500;7200;192;50;35;37;8400;3000;3501;3555;1;13524;33.84;41.54;34,6;BCS1388054;5;15
009541;13.12.2019;15:41:42;Cycle         ;04.12.2018;FEY;;LION;49;14500;7200;192;50;35;37;8400;3000;3582;3585;1;13012;33.84;39.14;34,5;BCS1388054;5;15
009541;14.12.2019;22:39:35;Stop          ;04.12.2018;FEY;;LION;49;14500;7200;224;52;93;99;8400;;4151;4152;1;13014;27.14;29.44;31,7;BCS1388054;5;15
009541;16.12.2019;07:43:20;Charge to 10% ;04.12.2018;FEY;;LION;49;14500;7200;224;52;94;100;8400;;4145;4145;1;13014;26.84;28.84;31,9;BCS1388054;5;15
009541;16.12.2019;14:34:29;Stop          ;04.12.2018;FEY;;LION;49;14500;7200;192;53;10;10;8400;3000;3362;3365;1;13013;33.34;35.64;32,5;BCS1388054;5;15
009541;16.12.2019;14:44:17;Charge to 90% ;04.12.2018;FEY;;LION;49;14500;7200;192;53;10;10;8400;3000;3366;3368;1;13012;32.54;32.54;31,9;BCS1388054;5;15
009541;16.12.2019;20:48:55;Stop          ;04.12.2018;FEY;;LION;49;14500;7200;192;53;84;90;8400;3000;4057;4059;1;13014;32.74;35.04;31,9;BCS1388054;5;15
009541;17.12.2019;08:37:54;Fastcharge    ;04.12.2018;FEY;;LION;49;14500;7200;192;53;84;90;8400;3000;4045;4047;1;13013;26.94;29.34;31,6;BCS1388054;5;15
009541;17.12.2019;10:33:46;Stop          ;04.12.2018;FEY;;LION;49;14500;7200;224;53;95;100;8400;;4160;4160;1;13013;28.74;30.84;31,1;BCS1388054;5;15
009541;17.12.2019;10:33:46;Stop          ;04.12.2018;FEY;;LION;49;14500;7200;224;53;95;100;8400;;4160;4160;1;13013;28.74;30.84;31,1;BCS1388054;5;15
009541;17.12.2019;13:38:36;Charge to 10% ;04.12.2018;FEY;;LION;49;14500;7200;224;53;95;100;8400;;4150;4151;1;13014;27.24;29.34;30,8;BCS1388054;5;15
009541;17.12.2019;20:33:18;Stop          ;04.12.2018;FEY;;LION;49;14500;7200;192;54;10;10;8400;3000;3361;3364;1;13012;35.04;36.84;34,5;BCS1388054;5;15
009541;18.12.2019;08:31:30;Fastcharge    ;04.12.2018;FEY;;LION;49;14500;7200;192;54;10;10;8400;3000;3372;3374;1;13013;27.04;29.54;31,6;BCS1388054;5;15
009541;18.12.2019;14:29:28;Stop          ;04.12.2018;FEY;;LION;49;14500;7200;224;54;95;100;8400;;4161;4161;1;13013;30.94;32.04;31,7;BCS1388054;5;15
009541;19.12.2019;08:24:02;Charge to 60% ;04.12.2018;FEY;;LION;49;14500;7200;224;54;96;100;8400;;4148;4149;1;13013;26.94;29.44;31,5;BCS1388054;5;15
009541;19.12.2019;11:31:09;Stop          ;04.12.2018;FEY;;LION;49;14500;7200;192;54;58;60;8400;3000;3763;3768;1;13012;34.54;36.94;34,4;BCS1388054;5;15
009541;19.12.2019;12:16:49;Cycle         ;04.12.2018;FEY;;LION;49;14500;7200;192;54;58;60;8400;3000;3773;3778;1;13013;31.24;31.94;32,7;BCS1388054;5;15
009541;20.12.2019;17:27:50;Stop          ;04.12.2018;FEY;;LION;49;14500;7200;224;56;94;100;8400;;4151;4153;1;13013;27.44;29.54;31,0;BCS1388054;5;15
009541;06.01.2020;06:34:55;Charge to 60% ;04.12.2018;FEY;;LION;49;14500;7200;192;56;92;98;8400;;4122;4123;1;13014;27.24;29.64;31,9;BCS1388054;5;15
009541;06.01.2020;09:30:26;Stop          ;04.12.2018;FEY;;LION;49;14500;7200;192;56;57;60;8400;3000;3768;3773;1;13013;33.74;36.44;33,9;BCS1388054;5;15
009541;06.01.2020;09:50:42;Fastcharge    ;04.12.2018;FEY;;LION;49;14500;7200;192;56;57;60;8400;3000;3776;3782;1;13014;32.24;32.54;32,7;BCS1388054;5;15
009541;06.01.2020;13:09:56;Stop          ;04.12.2018;FEY;;LION;49;14500;7200;224;56;94;100;8400;;4159;4161;1;13014;30.34;31.54;31,4;BCS1388054;5;15