File: reader/backup_20210408/Batterieverzeichnis/009681.txt
Serialnumber ; Date ; Time ; Action ; Date of Manufacture ; Manufacturer ; Battery Name ; Device-Chemistry ; Specification-Info ; Design-Capacity [mAh] ; Design-Voltage [mV] ; Battery Status ; Cycle Count ; SOC [%] ; Relativ SOC[%] ; Desired Voltage [mV]; Desired Current [mA]; Cell Voltage 1 [mV] ; Cell Voltage 2 [mV] ; Max_Error [%] ; Busvoltage[mV] ; Battery Temperature [°C] ; Charger Temperature [°C] ; Batterysystem ; Case ; PLace
009681;10.12.2019;15:28:53;Charge to 30% ;04.12.2018;FEY;;LION;49;14500;7200;224;55;91;99;8400;;4128;4127;1;13026;22.94;24.44;27,1;BCS1388054;4;4
009681;10.12.2019;20:47:57;Stop          ;04.12.2018;FEY;;LION;49;14500;7200;192;56;28;30;8400;3000;3563;3562;1;13026;33.74;32.44;33,4;BCS1388054;4;4
009681;11.12.2019;08:48:41;Fastcharge    ;04.12.2018;FEY;;LION;49;14500;7200;192;56;28;30;8400;3000;3570;3570;1;13025;26.74;27.84;31,9;BCS1388054;4;4
009681;11.12.2019;13:42:44;Stop          ;04.12.2018;FEY;;LION;49;14500;7200;224;56;94;100;8400;;4160;4160;1;13026;30.14;29.44;31,9;BCS1388054;4;4
009681;11.12.2019;15:46:31;Charge to 10% ;04.12.2018;FEY;;LION;49;14500;7200;224;56;95;99;8400;;4153;4153;1;13026;27.54;27.94;31,4;BCS1388054;4;4
009681;11.12.2019;22:50:44;Stop          ;04.12.2018;FEY;;LION;49;14500;7200;192;57;10;10;8400;3000;3362;3362;1;13025;34.24;32.54;33,2;BCS1388054;4;4
009681;12.12.2019;08:45:03;Normalcharge  ;04.12.2018;FEY;;LION;49;14500;7200;192;57;9;10;8400;3000;3370;3369;1;13026;26.94;27.84;31,9;BCS1388054;4;4
009681;12.12.2019;16:41:48;Stop          ;04.12.2018;FEY;;LION;49;14500;7200;224;57;95;100;8400;;4158;4159;1;13025;29.44;29.04;31,5;BCS1388054;4;4
009681;13.12.2019;10:48:01;Charge to 10% ;04.12.2018;FEY;;LION;49;14500;7200;224;57;95;100;8400;;4148;4148;1;13026;26.94;28.14;32,0;BCS1388054;4;4
009681;13.12.2019;15:42:25;Stop          ;04.12.2018;FEY;;LION;49;14500;7200;192;58;34;36;8400;3000;3499;3550;1;13520;33.14;37.34;34,6;BCS1388054;4;4
009681;13.12.2019;15:42:27;Cycle         ;04.12.2018;FEY;;LION;49;14500;7200;192;58;34;36;8400;3000;3499;3550;1;13024;33.14;37.34;34,6;BCS1388054;4;4
009681;14.12.2019;22:44:28;Stop          ;04.12.2018;FEY;;LION;49;14500;7200;224;59;92;99;8400;;4151;4148;1;13026;27.04;28.14;32,0;BCS1388054;4;4
009681;16.12.2019;07:43:14;Charge to 10% ;04.12.2018;FEY;;LION;49;14500;7200;224;59;93;100;8400;;4145;4142;1;13027;26.74;27.44;31,9;BCS1388054;4;4
009681;16.12.2019;14:36:44;Stop          ;04.12.2018;FEY;;LION;49;14500;7200;192;60;10;10;8400;3000;3367;3365;1;13025;32.84;31.24;32,4;BCS1388054;4;4
009681;16.12.2019;14:44:13;Charge to 90% ;04.12.2018;FEY;;LION;49;14500;7200;192;60;10;10;8400;3000;3368;3367;1;13026;32.24;30.14;31,7;BCS1388054;4;4
009681;16.12.2019;20:50:27;Stop          ;04.12.2018;FEY;;LION;49;14500;7200;192;60;84;90;8400;3000;4054;4054;1;13027;31.94;30.44;31,6;BCS1388054;4;4
009681;17.12.2019;08:37:49;Fastcharge    ;04.12.2018;FEY;;LION;49;14500;7200;192;60;84;90;8400;3000;4045;4045;1;13026;26.84;27.84;31,6;BCS1388054;4;4
009681;17.12.2019;10:31:06;Stop          ;04.12.2018;FEY;;LION;49;14500;7200;224;60;94;100;8400;;4159;4159;1;13027;28.44;28.54;31,4;BCS1388054;4;4
009681;17.12.2019;13:38:32;Charge to 10% ;04.12.2018;FEY;;LION;49;14500;7200;224;60;94;100;8400;;4149;4149;1;13026;27.14;27.74;30,8;BCS1388054;4;4
009681;17.12.2019;20:34:29;Stop          ;04.12.2018;FEY;;LION;49;14500;7200;192;61;10;10;8400;3000;3365;3365;1;13025;34.44;32.74;34,1;BCS1388054;4;4
009681;18.12.2019;08:31:26;Fastcharge    ;04.12.2018;FEY;;LION;49;14500;7200;192;61;10;10;8400;3000;3374;3374;1;13027;26.94;27.64;31,6;BCS1388054;4;4
009681;18.12.2019;14:29:12;Stop          ;04.12.2018;FEY;;LION;49;14500;7200;224;61;94;100;8400;;4161;4164;1;13025;30.34;29.54;31,9;BCS1388054;4;4
009681;19.12.2019;08:23:58;Charge to 60% ;04.12.2018;FEY;;LION;49;14500;7200;224;61;95;100;8400;;4150;4151;1;13025;26.84;27.84;31,6;BCS1388054;4;4
009681;19.12.2019;11:30:18;Stop          ;04.12.2018;FEY;;LION;49;14500;7200;192;62;57;60;8400;3000;3766;3768;1;13025;34.34;33.54;34,6;BCS1388054;4;4
009681;19.12.2019;12:16:45;Cycle         ;04.12.2018;FEY;;LION;49;14500;7200;192;62;57;60;8400;3000;3776;3779;1;13026;30.84;30.04;32,7;BCS1388054;4;4
009681;20.12.2019;17:30:48;Stop          ;04.12.2018;FEY;;LION;49;14500;7200;224;63;93;100;8400;;4151;4150;1;13026;27.14;27.44;30,6;BCS1388054;4;4
009681;06.01.2020;06:34:50;Charge to 60% ;04.12.2018;FEY;;LION;49;14500;7200;224;63;92;99;8400;;4122;4121;1;13027;27.04;28.04;31,9;BCS1388054;4;4
009681;06.01.2020;09:30:33;Stop          ;04.12.2018;FEY;;LION;49;14500;7200;192;63;56;60;8400;3000;3764;3765;1;13025;33.54;32.74;33,7;BCS1388054;4;4
009681;06.01.2020;09:50:38;Fastcharge    ;04.12.2018;FEY;;LION;49;14500;7200;192;63;56;60;8400;3000;3773;3774;1;13028;32.04;30.94;32,7;BCS1388054;4;4
009681;06.01.2020;13:09:19;Stop          ;04.12.2018;FEY;;LION;49;14500;7200;224;63;94;100;8400;;4160;4160;1;13027;29.74;28.94;31,4;BCS1388054;4;4