File: reader/backup_20210408/Batterieverzeichnis/009782.txt
Serialnumber ; Date ; Time ; Action ; Date of Manufacture ; Manufacturer ; Battery Name ; Device-Chemistry ; Specification-Info ; Design-Capacity [mAh] ; Design-Voltage [mV] ; Battery Status ; Cycle Count ; SOC [%] ; Relativ SOC[%] ; Desired Voltage [mV]; Desired Current [mA]; Cell Voltage 1 [mV] ; Cell Voltage 2 [mV] ; Max_Error [%] ; Busvoltage[mV] ; Battery Temperature [°C] ; Charger Temperature [°C] ; Batterysystem ; Case ; PLace
009782;30.11.2020;09:42:55;Stop          ;04.12.2018;FEY;;LION;49;14500;7200;224;5;97;100;8400;;4154;4155;1;13023;27.84;29.14;31,7;BCS1388054;7;7
009782;07.02.2021;08:46:43;Normalcharge  ;04.12.2018;FEY;;LION;49;14500;7200;192;5;94;97;8400;;4101;4102;1;13000;23.94;25.44;29,2;BCS1388054;1;18
009782;07.02.2021;11:52:07;Stop          ;04.12.2018;FEY;;LION;49;14500;7200;192;5;94;97;8400;;4101;4101;1;12997;25.64;26.64;29,7;BCS1388054;1;18
009782;03.03.2021;08:17:46;Normalcharge  ;04.12.2018;FEY;;LION;49;14500;7200;192;5;61;64;8400;3000;3791;3791;1;13037;23.14;24.04;23,6;BCS1388054;7;5
009782;03.03.2021;10:54:05;Stop          ;04.12.2018;FEY;;LION;49;14500;7200;128;5;93;97;8400;3000;4180;4146;1;12711;29.94;31.64;31,4;BCS1388054;7;5
009782;03.03.2021;10:55:49;Normalcharge  ;04.12.2018;FEY;;LION;49;14500;7200;192;5;93;97;8400;3000;4107;4108;1;13031;29.84;30.04;30,6;BCS1388054;7;5
009782;03.03.2021;17:03:24;Stop          ;04.12.2018;FEY;;LION;49;14500;7200;224;5;97;100;8400;;4152;4152;1;13033;26.24;27.44;31,4;BCS1388054;7;5
009782;04.04.2021;11:50:28;Normalcharge  ;04.12.2018;FEY;;LION;49;14500;7200;192;6;53;54;8400;3000;3685;3685;1;13005;25.04;25.64;27,9;BCS1388054;3;4
009782;04.04.2021;11:51:43;Stop           ;04.12.2018;FEY;;LION;49;14500;7200;128;6;53;54;8400;3000;3774;3725;1;12791;25.14;28.44;28,6;BCS1388054;3;4
009782;05.04.2021;09:38:00;Ladung auf 60% ;04.12.2018;FEY;;LION;49;14500;7200;192;6;53;54;8400;3000;3687;3686;1;12996;25.04;26.24;26,3;BCS1388054;3;8
009782;05.04.2021;10:06:07;Stop           ;04.12.2018;FEY;;LION;49;14500;7200;192;6;58;60;8400;3000;3750;3748;1;12994;27.34;30.14;31,4;BCS1388054;3;8