File: reader/backup_20210408/Batterieverzeichnis/009835.txt
Serialnumber ; Date ; Time ; Action ; Date of Manufacture ; Manufacturer ; Battery Name ; Device-Chemistry ; Specification-Info ; Design-Capacity [mAh] ; Design-Voltage [mV] ; Battery Status ; Cycle Count ; SOC [%] ; Relativ SOC[%] ; Desired Voltage [mV]; Desired Current [mA]; Cell Voltage 1 [mV] ; Cell Voltage 2 [mV] ; Max_Error [%] ; Busvoltage[mV] ; Battery Temperature [°C] ; Charger Temperature [°C] ; Batterysystem ; Case ; PLace
009835;07.02.2021;08:46:53;Normalcharge  ;04.12.2018;FEY;;LION;49;14500;7200;192;3;96;96;8400;;4106;4106;1;13006;23.44;25.14;29,2;BCS1388054;3;5
009835;07.02.2021;11:52:16;Stop           ;04.12.2018;FEY;;LION;49;14500;7200;192;3;96;96;8400;;4106;4106;1;13006;25.64;26.34;29,7;BCS1388054;3;5
009835;03.03.2021;08:17:17;Normalcharge  ;04.12.2018;FEY;;LION;49;14500;7200;192;3;95;95;8400;3000;4099;4099;1;13002;22.94;23.04;23,5;BCS1388054;2;13
009835;04.03.2021;07:53:46;Stop          ;04.12.2018;FEY;;LION;49;14500;7200;224;3;100;100;8400;;4146;4147;1;12994;26.24;27.74;31,6;BCS1388054;2;13
009835;04.04.2021;11:50:33;Normalcharge  ;04.12.2018;FEY;;LION;49;14500;7200;192;4;54;55;8400;3000;3694;3695;1;13005;24.74;27.04;27,9;BCS1388054;2;4
009835;04.04.2021;11:51:48;Stop          ;04.12.2018;FEY;;LION;49;14500;7200;128;4;54;55;8400;3000;3783;3737;1;12602;24.84;29.84;28,6;BCS1388054;2;4
009835;05.04.2021;09:37:46;Charge to 60% ;04.12.2018;FEY;;LION;49;14500;7200;192;4;54;55;8400;3000;3696;3698;1;12991;24.94;26.44;26,1;BCS1388054;2;7
009835;05.04.2021;10:03:48;Stop          ;04.12.2018;FEY;;LION;49;14500;7200;192;4;58;60;8400;3000;3757;3766;1;12987;26.84;30.34;31,4;BCS1388054;2;7