File: reader/backup_20210408/Batterieverzeichnis/009815.txt
Serialnumber ; Date ; Time ; Action ; Date of Manufacture ; Manufacturer ; Battery Name ; Device-Chemistry ; Specification-Info ; Design-Capacity [mAh] ; Design-Voltage [mV] ; Battery Status ; Cycle Count ; SOC [%] ; Relativ SOC[%] ; Desired Voltage [mV]; Desired Current [mA]; Cell Voltage 1 [mV] ; Cell Voltage 2 [mV] ; Max_Error [%] ; Busvoltage[mV] ; Battery Temperature [°C] ; Charger Temperature [°C] ; Batterysystem ; Case ; PLace
009815;10.12.2019;15:28:34;Charge to 30% ;03.12.2018;FEY;;LION;49;14500;7200;192;47;90;98;8400;;4106;4106;1;12990;23.64;25.54;27,1;BCS1388054;1;12
009815;10.12.2019;20:42:17;Stop          ;03.12.2018;FEY;;LION;49;14500;7200;192;48;28;30;8400;3000;3564;3563;1;12989;31.24;31.64;34,1;BCS1388054;1;12
009815;11.12.2019;08:48:18;Fastcharge    ;03.12.2018;FEY;;LION;49;14500;7200;192;48;28;30;8400;3000;3570;3570;1;12989;26.04;27.64;31,9;BCS1388054;1;12
009815;11.12.2019;13:40:21;Stop          ;03.12.2018;FEY;;LION;49;14500;7200;224;48;93;100;8400;;4159;4159;1;12990;28.04;28.64;32,4;BCS1388054;1;12
009815;11.12.2019;15:45:57;Charge to 30% ;03.12.2018;FEY;;LION;49;14500;7200;224;48;94;99;8400;;4151;4151;1;12990;26.54;27.54;31,5;BCS1388054;1;12
009815;11.12.2019;15:46:00;Stop          ;03.12.2018;FEY;;LION;49;14500;7200;224;48;94;99;8400;;4151;4151;1;12990;26.54;27.44;31,5;BCS1388054;1;12
009815;11.12.2019;15:46:13;Charge to 10% ;03.12.2018;FEY;;LION;49;14500;7200;224;48;94;99;8400;;4151;4151;1;12989;26.54;27.44;31,5;BCS1388054;1;12
009815;11.12.2019;22:50:20;Stop          ;03.12.2018;FEY;;LION;49;14500;7200;192;49;10;10;8400;3000;3356;3357;1;12990;31.24;31.04;33,4;BCS1388054;1;12
009815;12.12.2019;08:44:40;Normalcharge  ;03.12.2018;FEY;;LION;49;14500;7200;192;49;9;10;8400;3000;3365;3366;1;12990;26.24;27.54;31,9;BCS1388054;1;12
009815;12.12.2019;16:39:22;Stop          ;03.12.2018;FEY;;LION;49;14500;7200;224;49;95;100;8400;;4158;4158;1;12989;27.74;28.44;31,7;BCS1388054;1;12
009815;13.12.2019;10:47:47;Charge to 10% ;03.12.2018;FEY;;LION;49;14500;7200;224;49;94;100;8400;;4146;4146;1;12990;26.24;27.94;32,0;BCS1388054;1;12
009815;13.12.2019;15:41:58;Stop          ;03.12.2018;FEY;;LION;49;14500;7200;192;50;33;35;8400;3000;3492;3544;1;13627;30.84;33.24;34,6;BCS1388054;1;12
009815;13.12.2019;15:42:01;Cycle         ;03.12.2018;FEY;;LION;49;14500;7200;192;50;33;35;8400;3000;3492;3544;1;12987;30.84;33.24;34,6;BCS1388054;1;12
009815;14.12.2019;22:41:25;Stop          ;03.12.2018;FEY;;LION;49;14500;7200;224;51;92;99;8400;;4150;4150;1;12990;26.14;27.74;31,9;BCS1388054;1;12
009815;16.12.2019;07:43:03;Charge to 10% ;03.12.2018;FEY;;LION;49;14500;7200;224;51;92;100;8400;;4144;4144;1;12989;25.94;27.04;31,9;BCS1388054;1;12
009815;16.12.2019;14:36:13;Stop          ;03.12.2018;FEY;;LION;49;14500;7200;192;52;10;10;8400;3000;3368;3368;1;12989;30.14;30.14;32,4;BCS1388054;1;12
009815;16.12.2019;14:44:00;Charge to 90% ;03.12.2018;FEY;;LION;49;14500;7200;192;52;10;10;8400;3000;3370;3370;1;12990;29.54;29.44;31,7;BCS1388054;1;12
009815;16.12.2019;20:50:03;Stop          ;03.12.2018;FEY;;LION;49;14500;7200;192;52;83;90;8400;3000;4055;4056;1;12990;29.24;29.24;31,7;BCS1388054;1;12
009815;17.12.2019;08:37:36;Fastcharge    ;03.12.2018;FEY;;LION;49;14500;7200;192;52;83;90;8400;3000;4047;4048;1;12990;26.04;27.54;31,6;BCS1388054;1;12
009815;17.12.2019;10:31:11;Stop          ;03.12.2018;FEY;;LION;49;14500;7200;224;52;93;100;8400;;4159;4159;1;12990;27.04;27.74;31,4;BCS1388054;1;12
009815;17.12.2019;13:38:19;Charge to 10% ;03.12.2018;FEY;;LION;49;14500;7200;224;52;93;100;8400;;4148;4148;1;12989;26.14;27.44;30,8;BCS1388054;1;12
009815;17.12.2019;20:33:50;Stop          ;03.12.2018;FEY;;LION;49;14500;7200;192;53;10;10;8400;3000;3369;3369;1;12989;31.34;31.34;34,2;BCS1388054;1;12
009815;18.12.2019;08:31:14;Fastcharge    ;03.12.2018;FEY;;LION;49;14500;7200;192;53;10;10;8400;3000;3377;3378;1;12989;26.24;27.24;31,6;BCS1388054;1;12
009815;18.12.2019;14:28:33;Stop          ;03.12.2018;FEY;;LION;49;14500;7200;224;53;93;100;8400;;4157;4157;1;12989;28.04;28.64;31,9;BCS1388054;1;12
009815;19.12.2019;08:23:45;Charge to 60% ;03.12.2018;FEY;;LION;49;14500;7200;224;53;94;100;8400;;4146;4146;1;12990;26.04;27.54;31,5;BCS1388054;1;12
009815;19.12.2019;11:29:32;Stop          ;03.12.2018;FEY;;LION;49;14500;7200;192;54;57;60;8400;3000;3764;3763;1;12990;31.94;31.74;34,9;BCS1388054;1;12
009815;19.12.2019;12:16:33;Cycle         ;03.12.2018;FEY;;LION;49;14500;7200;192;54;57;60;8400;3000;3774;3772;1;12990;28.34;29.04;32,7;BCS1388054;1;12
009815;20.12.2019;17:26:19;Stop          ;03.12.2018;FEY;;LION;49;14500;7200;224;55;92;100;8400;;4149;4150;1;12990;26.14;27.04;31,2;BCS1388054;1;12
009815;06.01.2020;06:34:38;Charge to 60% ;03.12.2018;FEY;;LION;49;14500;7200;192;55;91;98;8400;;4120;4121;1;12991;26.14;27.44;31,9;BCS1388054;1;12
009815;06.01.2020;09:30:30;Stop          ;03.12.2018;FEY;;LION;49;14500;7200;192;56;56;60;8400;3000;3773;3772;1;12991;31.14;30.74;33,9;BCS1388054;1;12
009815;06.01.2020;09:50:27;Fastcharge    ;03.12.2018;FEY;;LION;49;14500;7200;192;56;56;60;8400;3000;3779;3779;1;12990;29.24;29.54;32,6;BCS1388054;1;12
009815;06.01.2020;13:07:36;Stop          ;03.12.2018;FEY;;LION;49;14500;7200;224;56;93;100;8400;;4158;4158;1;12991;27.74;28.14;31,7;BCS1388054;1;12