File: reader/backup_20220209/Batterieverzeichnis_new/001033.txt
Serialnumber ; Date ; Time ; Action ; Date of Manufacture ; Manufacturer ; Battery Name ; Device-Chemistry ; Specification-Info ; Design-Capacity [mAh] ; Design-Voltage [mV] ; Battery Status ; Cycle Count ; SOC [%] ; Relativ SOC[%] ; Desired Voltage [mV]; Desired Current [mA]; Cell Voltage 1 [mV] ; Cell Voltage 2 [mV] ; Max_Error [%] ; Busvoltage[mV] ; Battery Temperature [°C] ; Charger Temperature [°C] ; Batterysystem ; Case ; PLace
001033;10.12.2019;15:29:15;Charge to 30% ;28.11.2017;FEY;;LION;49;14500;7200;224;22;91;99;8400;;4121;4123;1;13028;22.24;24.34;27,1;BCS1388054;7;18
001033;10.12.2019;20:46:57;Stop          ;28.11.2017;FEY;;LION;49;14500;7200;192;23;28;30;8400;3000;3556;3556;1;13027;30.84;32.04;33,5;BCS1388054;7;18
001033;11.12.2019;08:49:12;Fastcharge    ;28.11.2017;FEY;;LION;49;14500;7200;192;23;28;30;8400;3000;3562;3563;1;13027;25.54;27.04;31,9;BCS1388054;7;18
001033;11.12.2019;13:38:42;Stop          ;28.11.2017;FEY;;LION;49;14500;7200;224;23;93;100;8400;;4161;4162;1;13026;27.84;29.34;32,7;BCS1388054;7;18
001033;11.12.2019;15:46:56;Charge to 10% ;28.11.2017;FEY;;LION;49;14500;7200;224;23;94;100;8400;;4153;4154;1;13026;26.04;27.34;31,2;BCS1388054;7;18
001033;11.12.2019;22:51:50;Stop          ;28.11.2017;FEY;;LION;49;14500;7200;192;24;10;10;8400;3000;3355;3356;1;13026;30.94;31.74;33,0;BCS1388054;7;18
001033;12.12.2019;08:45:27;Normalcharge  ;28.11.2017;FEY;;LION;49;14500;7200;192;24;9;10;8400;3000;3362;3363;1;13026;25.74;27.14;31,7;BCS1388054;7;18
001033;12.12.2019;16:41:08;Stop          ;28.11.2017;FEY;;LION;49;14500;7200;224;24;94;100;8400;;4158;4162;1;13026;27.44;28.54;31,6;BCS1388054;7;18
001033;13.12.2019;10:48:13;Charge to 10% ;28.11.2017;FEY;;LION;49;14500;7200;224;24;94;100;8400;;4149;4152;1;13027;25.74;27.24;32,0;BCS1388054;7;18
001033;13.12.2019;13:48:48;Stop          ;28.11.2017;FEY;;LION;49;14500;7200;192;25;56;60;8400;3000;3670;3724;1;13546;32.44;40.84;36,8;BCS1388054;7;18
001033;16.12.2019;07:43:34;Charge to 10% ;28.11.2017;FEY;;LION;49;14500;7200;192;25;56;60;8400;3000;3775;3777;1;13027;22.44;25.94;31,7;BCS1388054;7;18
001033;16.12.2019;11:52:34;Stop          ;28.11.2017;FEY;;LION;49;14500;7200;192;25;10;10;8400;3000;3358;3360;1;13026;30.54;31.74;34,7;BCS1388054;7;18
001033;16.12.2019;14:44:25;Charge to 90% ;28.11.2017;FEY;;LION;49;14500;7200;192;25;9;10;8400;3000;3362;3364;1;13027;27.74;28.64;31,7;BCS1388054;7;18
001033;16.12.2019;20:53:59;Stop          ;28.11.2017;FEY;;LION;49;14500;7200;192;25;83;90;8400;3000;4050;4052;1;13028;29.04;30.04;32,1;BCS1388054;7;18
001033;17.12.2019;08:38:02;Fastcharge    ;28.11.2017;FEY;;LION;49;14500;7200;192;25;84;90;8400;3000;4043;4044;1;13027;25.54;26.94;31,6;BCS1388054;7;18
001033;17.12.2019;10:36:25;Stop          ;28.11.2017;FEY;;LION;49;14500;7200;224;25;93;100;8400;;4159;4161;1;13027;26.84;28.14;31,5;BCS1388054;7;18
001033;17.12.2019;13:38:44;Charge to 10% ;28.11.2017;FEY;;LION;49;14500;7200;224;25;93;100;8400;;4152;4154;1;13027;25.74;27.04;30,8;BCS1388054;7;18
001033;17.12.2019;20:42:03;Stop          ;28.11.2017;FEY;;LION;49;14500;7200;192;27;10;10;8400;3000;3359;3361;1;13027;30.74;31.44;32,6;BCS1388054;7;18
001033;18.12.2019;08:31:43;Fastcharge    ;28.11.2017;FEY;;LION;49;14500;7200;192;27;9;9;8400;3000;3366;3368;1;13026;25.74;27.04;31,6;BCS1388054;7;18
001033;18.12.2019;14:30:48;Stop          ;28.11.2017;FEY;;LION;49;14500;7200;224;27;92;100;8400;;4158;4161;1;13027;27.84;28.84;31,6;BCS1388054;7;18
001033;19.12.2019;08:24:17;Charge to 60% ;28.11.2017;FEY;;LION;49;14500;7200;224;27;93;100;8400;;4148;4151;1;13026;25.64;27.04;31,6;BCS1388054;7;18
001033;19.12.2019;11:28:26;Stop          ;28.11.2017;FEY;;LION;49;14500;7200;192;27;56;60;8400;3000;3770;3771;1;13027;31.74;33.74;35,1;BCS1388054;7;18
001033;19.12.2019;12:16:57;Cycle         ;28.11.2017;FEY;;LION;49;14500;7200;192;27;56;60;8400;3000;3779;3780;1;13026;28.14;29.04;32,7;BCS1388054;7;18
001033;20.12.2019;17:22:28;Stop          ;28.11.2017;FEY;;LION;49;14500;7200;224;28;92;100;8400;;4152;4154;1;13027;25.84;27.34;31,9;BCS1388054;7;18
001033;06.01.2020;06:35:02;Charge to 60% ;28.11.2017;FEY;;LION;49;14500;7200;192;28;90;98;8400;;4122;4123;1;13028;25.74;27.14;31,9;BCS1388054;7;18
001033;06.01.2020;09:29:52;Stop          ;28.11.2017;FEY;;LION;49;14500;7200;192;29;56;60;8400;3000;3771;3770;1;13027;30.84;32.74;34,0;BCS1388054;7;18
001033;06.01.2020;09:50:50;Fastcharge    ;28.11.2017;FEY;;LION;49;14500;7200;192;29;56;60;8400;3000;3777;3778;1;13027;29.04;29.64;32,7;BCS1388054;7;18
001033;06.01.2020;13:05:11;Stop          ;28.11.2017;FEY;;LION;49;14500;7200;224;29;93;100;8400;;4159;4160;1;13028;27.74;29.14;32,4;BCS1388054;7;18