File: reader/backup_20220209/Batterieverzeichnis_new/001075.txt
Serialnumber ; Date ; Time ; Action ; Date of Manufacture ; Manufacturer ; Battery Name ; Device-Chemistry ; Specification-Info ; Design-Capacity [mAh] ; Design-Voltage [mV] ; Battery Status ; Cycle Count ; SOC [%] ; Relativ SOC[%] ; Desired Voltage [mV]; Desired Current [mA]; Cell Voltage 1 [mV] ; Cell Voltage 2 [mV] ; Max_Error [%] ; Busvoltage[mV] ; Battery Temperature [°C] ; Charger Temperature [°C] ; Batterysystem ; Case ; PLace
001075;10.12.2019;15:29:09;Charge to 30% ;15.02.2018;FEY;;LION;49;14500;7200;224;11;92;99;8400;;4123;4124;1;13015;22.74;23.44;27,1;BCS1388054;6;12
001075;10.12.2019;20:46:41;Stop          ;15.02.2018;FEY;;LION;49;14500;7200;192;11;28;30;8400;3000;3560;3560;1;13010;31.64;30.34;33,6;BCS1388054;6;12
001075;11.12.2019;08:49:03;Fastcharge    ;15.02.2018;FEY;;LION;49;14500;7200;192;11;28;30;8400;3000;3568;3568;1;13010;26.24;26.44;31,9;BCS1388054;6;12
001075;11.12.2019;13:39:30;Stop          ;15.02.2018;FEY;;LION;49;14500;7200;224;11;94;100;8400;;4161;4162;1;13011;28.54;27.94;32,5;BCS1388054;6;12
001075;11.12.2019;15:46:47;Charge to 10% ;15.02.2018;FEY;;LION;49;14500;7200;224;11;96;100;8400;;4156;4156;1;13012;26.64;26.44;31,4;BCS1388054;6;12
001075;11.12.2019;22:52:10;Stop          ;15.02.2018;FEY;;LION;49;14500;7200;192;13;10;10;8400;3000;3358;3358;1;13010;31.84;30.24;33,0;BCS1388054;6;12
001075;12.12.2019;08:45:18;Normalcharge  ;15.02.2018;FEY;;LION;49;14500;7200;192;13;9;9;8400;3000;3366;3365;1;13010;26.44;26.24;31,7;BCS1388054;6;12
001075;12.12.2019;16:41:29;Stop          ;15.02.2018;FEY;;LION;49;14500;7200;224;13;95;100;8400;;4160;4160;1;13010;28.14;27.44;31,5;BCS1388054;6;12
001075;13.12.2019;10:48:09;Charge to 10% ;15.02.2018;FEY;;LION;49;14500;7200;224;13;96;100;8400;;4151;4151;1;13010;26.44;26.54;32,0;BCS1388054;6;12
001075;13.12.2019;13:51:54;Stop          ;15.02.2018;FEY;;LION;49;14500;7200;192;13;57;60;8400;3000;3680;3726;1;13507;33.04;33.84;36,1;BCS1388054;6;12
001075;13.12.2019;13:53:13;Fastcharge    ;15.02.2018;FEY;;LION;49;14500;7200;192;13;57;60;8400;3000;3761;3758;1;13008;32.94;32.34;35,8;BCS1388054;6;12
001075;13.12.2019;13:53:19;Stop          ;15.02.2018;FEY;;LION;49;14500;7200;192;13;57;60;8400;3000;3762;3759;1;12999;32.94;32.24;35,8;BCS1388054;6;12
001075;13.12.2019;13:53:25;Normalcharge  ;15.02.2018;FEY;;LION;49;14500;7200;192;13;57;60;8400;3000;3762;3759;1;13008;32.94;32.34;35,8;BCS1388054;6;12
001075;13.12.2019;20:04:59;Stop          ;15.02.2018;FEY;;LION;49;14500;7200;224;13;96;100;8400;;4154;4154;1;13010;27.44;27.44;32,0;BCS1388054;6;12
001075;16.12.2019;07:43:27;Charge to 10% ;15.02.2018;FEY;;LION;49;14500;7200;224;13;95;100;8400;;4146;4146;1;13012;26.04;25.14;31,7;BCS1388054;6;12
001075;16.12.2019;14:43:10;Stop          ;15.02.2018;FEY;;LION;49;14500;7200;192;14;10;10;8400;3000;3361;3361;1;13011;29.84;28.24;31,7;BCS1388054;6;12
001075;16.12.2019;14:44:21;Charge to 90% ;15.02.2018;FEY;;LION;49;14500;7200;192;14;10;10;8400;3000;3361;3361;1;13010;29.74;28.14;31,9;BCS1388054;6;12
001075;16.12.2019;20:54:26;Stop          ;15.02.2018;FEY;;LION;49;14500;7200;192;14;85;90;8400;3000;4051;4052;1;13012;29.74;28.94;32,1;BCS1388054;6;12
001075;17.12.2019;08:37:57;Fastcharge    ;15.02.2018;FEY;;LION;49;14500;7200;192;14;85;90;8400;3000;4043;4043;1;13011;26.24;26.34;31,6;BCS1388054;6;12
001075;17.12.2019;13:38:40;Charge to 10% ;15.02.2018;FEY;;LION;49;14500;7200;224;14;95;100;8400;;4152;4153;1;13011;26.34;26.34;30,8;BCS1388054;6;12
001075;17.12.2019;20:41:41;Stop          ;15.02.2018;FEY;;LION;49;14500;7200;192;15;10;10;8400;3000;3358;3358;1;13011;31.64;29.94;32,6;BCS1388054;6;12
001075;18.12.2019;08:31:34;Fastcharge    ;15.02.2018;FEY;;LION;49;14500;7200;192;15;9;9;8400;3000;3367;3367;1;13011;26.44;26.24;31,6;BCS1388054;6;12
001075;18.12.2019;14:33:31;Stop          ;15.02.2018;FEY;;LION;49;14500;7200;224;15;95;100;8400;;4161;4161;1;13011;28.34;27.54;31,4;BCS1388054;6;12
001075;19.12.2019;08:24:06;Charge to 60% ;15.02.2018;FEY;;LION;49;14500;7200;224;15;96;100;8400;;4151;4152;1;13010;26.24;26.34;31,5;BCS1388054;6;12
001075;19.12.2019;11:34:24;Stop          ;15.02.2018;FEY;;LION;49;14500;7200;192;16;58;60;8400;3000;3773;3770;1;13012;31.94;30.24;33,5;BCS1388054;6;12
001075;19.12.2019;12:16:53;Cycle         ;15.02.2018;FEY;;LION;49;14500;7200;192;16;58;60;8400;3000;3782;3779;1;13011;28.74;28.04;32,7;BCS1388054;6;12
001075;20.12.2019;17:31:05;Stop          ;15.02.2018;FEY;;LION;49;14500;7200;224;17;93;100;8400;;4154;4152;1;13012;26.34;26.14;30,6;BCS1388054;6;12
001075;06.01.2020;06:34:58;Charge to 60% ;15.02.2018;FEY;;LION;49;14500;7200;192;17;91;98;8400;;4124;4122;1;13013;26.44;26.44;31,9;BCS1388054;6;12
001075;06.01.2020;09:30:42;Stop          ;15.02.2018;FEY;;LION;49;14500;7200;192;18;57;60;8400;3000;3769;3764;1;13012;31.44;30.24;33,7;BCS1388054;6;12
001075;06.01.2020;09:50:46;Fastcharge    ;15.02.2018;FEY;;LION;49;14500;7200;192;18;57;60;8400;3000;3780;3775;1;13012;29.74;28.74;32,7;BCS1388054;6;12
001075;06.01.2020;13:06:22;Stop          ;15.02.2018;FEY;;LION;49;14500;7200;224;18;94;100;8400;;4160;4158;1;13012;28.14;27.44;32,1;BCS1388054;6;12