File: reader/backup_20220209/Batterieverzeichnis_new/009569.txt
Serialnumber ; Date ; Time ; Action ; Date of Manufacture ; Manufacturer ; Battery Name ; Device-Chemistry ; Specification-Info ; Design-Capacity [mAh] ; Design-Voltage [mV] ; Battery Status ; Cycle Count ; SOC [%] ; Relativ SOC[%] ; Desired Voltage [mV]; Desired Current [mA]; Cell Voltage 1 [mV] ; Cell Voltage 2 [mV] ; Max_Error [%] ; Busvoltage[mV] ; Battery Temperature [°C] ; Charger Temperature [°C] ; Batterysystem ; Case ; PLace
009569;07.12.2020;04:14:36;Cycle         ;04.12.2018;FEY;;LION;49;14500;7200;192;1;96;97;8400;;4132;4134;1;13010;25.64;28.64;30,3;BCS1388054;6;15
009569;08.12.2020;16:20:13;Stop          ;04.12.2018;FEY;;LION;49;14500;7200;192;1;96;97;8400;;4130;4131;1;13010;27.74;30.24;31,9;BCS1388054;6;15
009569;12.01.2021;04:17:40;Charge to 90% ;04.12.2018;FEY;;LION;49;14500;7200;192;1;95;96;8400;;4118;4119;1;13003;23.14;23.94;23,6;BCS1388054;6;8
009569;12.01.2021;05:00:55;Stop          ;04.12.2018;FEY;;LION;49;14500;7200;192;1;89;90;8400;3000;4061;4062;1;12997;26.84;29.94;31,2;BCS1388054;6;8
009569;12.01.2021;05:21:57;Cycle         ;04.12.2018;FEY;;LION;49;14500;7200;192;1;89;90;8400;3000;4063;4064;1;12998;27.04;28.74;30,4;BCS1388054;6;8
009569;13.01.2021;08:31:18;Stop          ;04.12.2018;FEY;;LION;49;14500;7200;224;2;97;100;8400;;4156;4159;1;13001;27.14;28.64;31,1;BCS1388054;6;8
009569;22.02.2021;17:31:46;Normalcharge  ;04.12.2018;FEY;;LION;49;14500;7200;192;3;59;61;8400;3000;3757;3763;1;12993;26.54;27.44;31,6;BCS1388054;1;14
009569;22.02.2021;23:06:28;Stop          ;04.12.2018;FEY;;LION;49;14500;7200;224;3;97;100;8400;;4156;4157;1;12995;26.74;28.64;30,6;BCS1388054;1;14
009569;04.04.2021;11:50:33;Normalcharge  ;04.12.2018;FEY;;LION;49;14500;7200;192;3;53;55;8400;3000;3697;3698;1;13017;25.04;25.94;27,9;BCS1388054;2;6
009569;04.04.2021;11:51:48;Stop          ;04.12.2018;FEY;;LION;49;14500;7200;128;3;53;55;8400;3000;3784;3738;1;12611;25.04;28.04;28,6;BCS1388054;2;6
009569;05.04.2021;09:37:46;Charge to 60% ;04.12.2018;FEY;;LION;49;14500;7200;192;3;53;55;8400;3000;3700;3700;1;13004;25.14;25.44;26,1;BCS1388054;2;11
009569;05.04.2021;10:03:48;Stop          ;04.12.2018;FEY;;LION;49;14500;7200;192;3;57;60;8400;3000;3761;3765;1;12999;27.04;27.94;31,4;BCS1388054;2;11
009569;22.08.2021;11:07:55;Normalcharge  ;04.12.2018;FEY;;LION;49;14500;7200;192;3;45;46;8400;3000;3624;3624;1;12993;22.44;30.24;32,0;BCS1388054;2;8
009569;22.08.2021;11:08:28;Stop          ;04.12.2018;FEY;;LION;49;14500;7200;128;3;45;46;8400;3000;3672;3646;1;12607;22.54;31.34;32,4;BCS1388054;2;8
009569;25.08.2021;08:13:04;Normalcharge  ;04.12.2018;FEY;;LION;49;14500;7200;192;3;44;46;8400;3000;3626;3626;1;13013;30.44;30.44;32,4;BCS1388054;7;6
009569;25.08.2021;08:13:16;Stop          ;04.12.2018;FEY;;LION;49;14500;7200;192;3;44;46;8400;3000;3626;3626;1;13001;30.44;30.64;32,5;BCS1388054;7;6
009569;25.08.2021;08:14:41;Charge to 60% ;04.12.2018;FEY;;LION;49;14500;7200;192;3;44;46;8400;3000;3626;3626;1;13016;30.44;30.54;33,0;BCS1388054;7;6
009569;25.08.2021;08:37:46;Stop          ;04.12.2018;FEY;;LION;49;14500;7200;128;3;49;50;8400;3000;3746;3699;1;12747;32.04;34.84;36,1;BCS1388054;7;6
009569;25.08.2021;08:38:03;Charge to 60% ;04.12.2018;FEY;;LION;49;14500;7200;128;3;49;50;8400;3000;3667;3670;1;13014;32.14;33.74;36,1;BCS1388054;7;6
009569;25.08.2021;13:26:36;Stop          ;04.12.2018;FEY;;LION;49;14500;7200;192;3;58;60;8400;3000;3734;3735;1;13015;32.44;32.34;36,4;BCS1388054;7;6
009569;01.11.2021;09:51:55;Normalcharge  ;04.12.2018;FEY;;LION;49;14500;7200;192;3;54;56;8400;3000;3706;3707;1;12994;25.84;26.24;26,3;BCS1388054;6;8
009569;01.11.2021;09:53:45;Stop          ;04.12.2018;FEY;;LION;49;14500;7200;128;3;54;56;8400;3000;3799;3751;1;12619;25.84;30.24;27,3;BCS1388054;6;8
009569;01.11.2021;10:02:24;Normalcharge  ;04.12.2018;FEY;;LION;49;14500;7200;192;3;54;56;8400;3000;3710;3711;1;12990;26.04;28.54;29,5;BCS1388054;6;8
009569;01.11.2021;10:03:07;Stop          ;04.12.2018;FEY;;LION;49;14500;7200;128;3;54;56;8400;3000;3789;3745;1;12618;26.04;29.84;29,3;BCS1388054;6;8
009569;01.11.2021;10:27:30;Normalcharge  ;04.12.2018;FEY;;LION;49;14500;7200;192;3;54;56;8400;3000;3711;3712;1;12992;26.24;27.04;27,8;BCS1388054;6;8
009569;01.11.2021;10:29:18;Stop          ;04.12.2018;FEY;;LION;49;14500;7200;128;3;54;56;8400;3000;3803;3756;1;12622;26.34;31.04;28,6;BCS1388054;6;8
009569;01.11.2021;14:25:59;Stop          ;04.12.2018;FEY;;LION;49;14500;7200;192;3;58;60;8400;3000;3752;3754;1;12990;28.44;30.34;32,6;BCS1388054;6;8