File: reader/backup_20220209/Batterieverzeichnis_new/009519.txt
Serialnumber ; Date ; Time ; Action ; Date of Manufacture ; Manufacturer ; Battery Name ; Device-Chemistry ; Specification-Info ; Design-Capacity [mAh] ; Design-Voltage [mV] ; Battery Status ; Cycle Count ; SOC [%] ; Relativ SOC[%] ; Desired Voltage [mV]; Desired Current [mA]; Cell Voltage 1 [mV] ; Cell Voltage 2 [mV] ; Max_Error [%] ; Busvoltage[mV] ; Battery Temperature [°C] ; Charger Temperature [°C] ; Batterysystem ; Case ; PLace
009519;10.12.2019;15:28:54;Charge to 30% ;04.12.2018;FEY;;LION;49;14500;7200;224;51;92;100;8400;;4129;4129;1;13018;22.84;24.24;27,1;BCS1388054;4;17
009519;10.12.2019;20:47:57;Stop          ;04.12.2018;FEY;;LION;49;14500;7200;192;52;29;30;8400;3000;3559;3559;1;13018;34.04;34.24;33,4;BCS1388054;4;17
009519;11.12.2019;08:48:41;Fastcharge    ;04.12.2018;FEY;;LION;49;14500;7200;192;52;29;30;8400;3000;3567;3567;1;13018;26.54;27.84;31,9;BCS1388054;4;17
009519;11.12.2019;13:42:44;Stop          ;04.12.2018;FEY;;LION;49;14500;7200;224;52;94;100;8400;;4160;4160;1;13019;30.44;30.34;31,9;BCS1388054;4;17
009519;11.12.2019;15:46:31;Charge to 10% ;04.12.2018;FEY;;LION;49;14500;7200;224;52;96;100;8400;;4153;4152;1;13018;27.44;28.34;31,4;BCS1388054;4;17
009519;11.12.2019;22:50:44;Stop          ;04.12.2018;FEY;;LION;49;14500;7200;192;53;10;10;8400;3000;3352;3352;1;13017;34.74;34.14;33,2;BCS1388054;4;17
009519;12.12.2019;08:45:03;Normalcharge  ;04.12.2018;FEY;;LION;49;14500;7200;192;53;9;10;8400;3000;3362;3362;1;13018;26.74;28.04;31,9;BCS1388054;4;17
009519;12.12.2019;16:41:48;Stop          ;04.12.2018;FEY;;LION;49;14500;7200;224;53;95;100;8400;;4159;4159;1;13018;29.54;29.94;31,5;BCS1388054;4;17
009519;13.12.2019;10:48:01;Charge to 10% ;04.12.2018;FEY;;LION;49;14500;7200;224;53;95;100;8400;;4148;4148;1;13018;26.74;28.14;32,0;BCS1388054;4;17
009519;13.12.2019;15:42:25;Stop          ;04.12.2018;FEY;;LION;49;14500;7200;192;54;34;36;8400;3000;3499;3551;1;13527;33.44;39.94;34,6;BCS1388054;4;17
009519;13.12.2019;15:42:27;Cycle         ;04.12.2018;FEY;;LION;49;14500;7200;192;54;34;36;8400;3000;3499;3551;1;13016;33.44;39.94;34,6;BCS1388054;4;17
009519;14.12.2019;22:44:28;Stop          ;04.12.2018;FEY;;LION;49;14500;7200;224;55;93;99;8400;;4151;4150;1;13018;26.94;28.04;32,0;BCS1388054;4;17
009519;16.12.2019;07:43:14;Charge to 10% ;04.12.2018;FEY;;LION;49;14500;7200;224;55;93;100;8400;;4145;4145;1;13018;26.54;27.64;31,9;BCS1388054;4;17
009519;16.12.2019;14:36:44;Stop          ;04.12.2018;FEY;;LION;49;14500;7200;192;56;10;10;8400;3000;3365;3365;1;13018;33.14;32.74;32,4;BCS1388054;4;17
009519;16.12.2019;14:44:13;Charge to 90% ;04.12.2018;FEY;;LION;49;14500;7200;192;56;10;10;8400;3000;3367;3367;1;13018;32.54;31.24;31,7;BCS1388054;4;17
009519;16.12.2019;20:50:28;Stop          ;04.12.2018;FEY;;LION;49;14500;7200;192;56;84;90;8400;3000;4054;4054;1;13019;32.14;32.04;31,6;BCS1388054;4;17
009519;17.12.2019;08:37:50;Fastcharge    ;04.12.2018;FEY;;LION;49;14500;7200;192;56;84;90;8400;3000;4045;4045;1;13017;26.64;27.94;31,6;BCS1388054;4;17
009519;17.12.2019;10:31:07;Stop          ;04.12.2018;FEY;;LION;49;14500;7200;224;56;94;100;8400;;4159;4158;1;13018;28.34;29.54;31,4;BCS1388054;4;17
009519;17.12.2019;13:38:32;Charge to 10% ;04.12.2018;FEY;;LION;49;14500;7200;224;56;94;100;8400;;4148;4148;1;13019;26.94;27.84;30,8;BCS1388054;4;17
009519;17.12.2019;20:34:29;Stop          ;04.12.2018;FEY;;LION;49;14500;7200;192;57;10;10;8400;3000;3363;3363;1;13017;34.74;34.24;34,1;BCS1388054;4;17
009519;18.12.2019;08:31:26;Fastcharge    ;04.12.2018;FEY;;LION;49;14500;7200;192;57;10;10;8400;3000;3372;3372;1;13018;26.74;28.04;31,6;BCS1388054;4;17
009519;18.12.2019;14:29:12;Stop          ;04.12.2018;FEY;;LION;49;14500;7200;224;57;94;100;8400;;4161;4161;1;13017;30.54;30.64;31,9;BCS1388054;4;17
009519;19.12.2019;08:23:58;Charge to 60% ;04.12.2018;FEY;;LION;49;14500;7200;224;57;95;100;8400;;4149;4148;1;13019;26.64;27.84;31,6;BCS1388054;4;17
009519;19.12.2019;11:30:18;Stop          ;04.12.2018;FEY;;LION;49;14500;7200;192;58;57;60;8400;3000;3768;3766;1;13017;34.64;35.74;34,6;BCS1388054;4;17
009519;19.12.2019;12:16:45;Cycle         ;04.12.2018;FEY;;LION;49;14500;7200;192;58;57;60;8400;3000;3778;3776;1;13018;31.04;30.54;32,7;BCS1388054;4;17
009519;20.12.2019;17:30:48;Stop          ;04.12.2018;FEY;;LION;49;14500;7200;224;59;93;100;8400;;4151;4151;1;13018;27.04;27.84;30,6;BCS1388054;4;17
009519;06.01.2020;06:34:50;Charge to 60% ;04.12.2018;FEY;;LION;49;14500;7200;224;59;92;99;8400;;4122;4122;1;13020;26.84;28.04;31,9;BCS1388054;4;17
009519;06.01.2020;09:30:33;Stop          ;04.12.2018;FEY;;LION;49;14500;7200;192;59;56;60;8400;3000;3767;3766;1;13018;33.74;34.84;33,7;BCS1388054;4;17
009519;06.01.2020;09:50:38;Fastcharge    ;04.12.2018;FEY;;LION;49;14500;7200;192;59;56;60;8400;3000;3776;3774;1;13018;32.14;31.24;32,7;BCS1388054;4;17
009519;06.01.2020;13:09:19;Stop          ;04.12.2018;FEY;;LION;49;14500;7200;224;59;94;100;8400;;4159;4158;1;13019;30.04;30.04;31,4;BCS1388054;4;17