File: reader/backup_20220209/Batterieverzeichnis_new/009589.txt
Serialnumber ; Date ; Time ; Action ; Date of Manufacture ; Manufacturer ; Battery Name ; Device-Chemistry ; Specification-Info ; Design-Capacity [mAh] ; Design-Voltage [mV] ; Battery Status ; Cycle Count ; SOC [%] ; Relativ SOC[%] ; Desired Voltage [mV]; Desired Current [mA]; Cell Voltage 1 [mV] ; Cell Voltage 2 [mV] ; Max_Error [%] ; Busvoltage[mV] ; Battery Temperature [°C] ; Charger Temperature [°C] ; Batterysystem ; Case ; PLace
009589;07.12.2020;04:14:21;Cycle         ;03.12.2018;FEY;;LION;49;14500;7200;224;4;98;99;8400;;4143;4142;1;12988;25.84;28.04;30,3;BCS1388054;2;15
009589;08.12.2020;16:19:44;Stop          ;03.12.2018;FEY;;LION;49;14500;7200;224;5;98;100;8400;;4152;4152;1;12988;28.04;29.64;31,9;BCS1388054;2;15
009589;03.03.2021;08:17:40;Normalcharge  ;03.12.2018;FEY;;LION;49;14500;7200;192;5;70;71;8400;3000;3863;3862;1;13002;23.34;23.24;23,6;BCS1388054;6;7
009589;03.03.2021;11:56:52;Stop          ;03.12.2018;FEY;;LION;49;14500;7200;224;5;98;100;8400;;4157;4157;1;12994;28.84;29.24;31,7;BCS1388054;6;7
009589;06.04.2021;08:38:46;Normalcharge  ;03.12.2018;FEY;;LION;49;14500;7200;224;5;97;99;8400;;4133;4132;1;12992;21.74;25.74;28,1;BCS1388054;2;18
009589;06.04.2021;08:39:36;Stop          ;03.12.2018;FEY;;LION;49;14500;7200;224;5;97;99;8400;;4132;4132;1;12990;21.84;25.94;28,2;BCS1388054;2;18
009589;08.04.2021;07:57:57;Normalcharge  ;03.12.2018;FEY;;LION;49;14500;7200;224;5;97;99;8400;;4132;4131;1;12994;25.44;25.94;26,3;BCS1388054;2;18
009589;08.04.2021;07:59:45;Stop          ;03.12.2018;FEY;;LION;49;14500;7200;224;5;97;99;8400;;4132;4131;1;12990;25.54;26.44;26,8;BCS1388054;2;18
009589;08.04.2021;10:35:00;Normalcharge  ;03.12.2018;FEY;;LION;49;14500;7200;224;5;97;99;8400;;4132;4131;1;12991;25.94;26.34;28,1;BCS1388054;2;18
009589;08.04.2021;10:36:53;Stop          ;03.12.2018;FEY;;LION;49;14500;7200;224;5;97;99;8400;;4131;4131;1;12989;25.94;26.94;28,9;BCS1388054;2;18
009589;18.04.2021;08:33:36;Normalcharge  ;03.12.2018;FEY;;LION;49;14500;7200;224;5;96;99;8400;;4128;4127;1;12990;26.44;27.14;27,7;BCS1388054;2;18
009589;18.04.2021;08:33:44;Stop          ;03.12.2018;FEY;;LION;49;14500;7200;224;5;96;99;8400;;4128;4127;1;12990;26.44;27.24;27,8;BCS1388054;2;18
009589;04.08.2021;07:24:55;Normalcharge  ;03.12.2018;FEY;;LION;49;14500;7200;192;5;94;96;8400;;4095;4094;1;12984;30.74;31.54;31,5;BCS1388054;2;18
009589;04.08.2021;07:25:47;Stop          ;03.12.2018;FEY;;LION;49;14500;7200;192;5;94;96;8400;;4094;4093;1;12982;30.74;31.74;31,9;BCS1388054;2;18
009589;22.08.2021;11:07:59;Normalcharge  ;03.12.2018;FEY;;LION;49;14500;7200;192;6;70;71;8400;3000;3860;3859;1;13001;22.84;29.64;32,1;BCS1388054;3;5
009589;22.08.2021;11:08:33;Stop           ;03.12.2018;FEY;;LION;49;14500;7200;128;6;70;71;8400;3000;3920;3887;1;12699;22.94;30.74;32,4;BCS1388054;3;5
009589;12.10.2021;12:58:56;Normalcharge  ;03.12.2018;FEY;;LION;49;14500;7200;192;6;70;71;8400;3000;3850;3849;1;12990;23.64;27.84;28,5;BCS1388054;6;13
009589;12.10.2021;12:59:25;Stop          ;03.12.2018;FEY;;LION;49;14500;7200;128;6;70;71;8400;3000;3856;3852;1;12954;23.74;28.94;28,6;BCS1388054;6;13
009589;14.10.2021;12:40:12;Normalcharge  ;03.12.2018;FEY;;LION;49;14500;7200;192;6;70;71;8400;3000;3850;3849;1;13009;23.94;26.04;27,9;BCS1388054;5;4
009589;14.10.2021;12:41:49;Stop          ;03.12.2018;FEY;;LION;49;14500;7200;128;6;70;72;8400;3000;3946;3898;1;12654;24.14;29.84;28,5;BCS1388054;5;4