File: reader/backup_20220209/Batterieverzeichnis_new/009654.txt
Serialnumber ; Date ; Time ; Action ; Date of Manufacture ; Manufacturer ; Battery Name ; Device-Chemistry ; Specification-Info ; Design-Capacity [mAh] ; Design-Voltage [mV] ; Battery Status ; Cycle Count ; SOC [%] ; Relativ SOC[%] ; Desired Voltage [mV]; Desired Current [mA]; Cell Voltage 1 [mV] ; Cell Voltage 2 [mV] ; Max_Error [%] ; Busvoltage[mV] ; Battery Temperature [°C] ; Charger Temperature [°C] ; Batterysystem ; Case ; PLace
009654;07.12.2020;04:14:17;Cycle         ;03.12.2018;FEY;;LION;49;14500;7200;224;2;99;99;8400;;4154;4156;1;12998;25.74;28.24;30,3;BCS1388054;1;14
009654;08.12.2020;16:19:38;Stop          ;03.12.2018;FEY;;LION;49;14500;7200;224;3;97;100;8400;;4152;4154;1;12999;27.64;29.64;31,9;BCS1388054;1;14
009654;03.03.2021;08:17:29;Normalcharge  ;03.12.2018;FEY;;LION;49;14500;7200;192;3;89;91;8400;3000;4053;4054;1;13014;23.24;23.44;23,5;BCS1388054;4;1
009654;03.03.2021;10:32:46;Stop          ;03.12.2018;FEY;;LION;49;14500;7200;224;3;98;100;8400;;4155;4157;1;13009;28.24;29.94;32,0;BCS1388054;4;1
009654;04.04.2021;11:50:22;Normalcharge  ;03.12.2018;FEY;;LION;49;14500;7200;192;4;54;56;8400;3000;3704;3704;1;12996;25.04;26.04;27,9;BCS1388054;4;5
009654;04.04.2021;11:51:36;Stop          ;03.12.2018;FEY;;LION;49;14500;7200;128;4;54;56;8400;3000;3791;3746;1;12706;25.04;28.44;28,6;BCS1388054;4;5
009654;05.04.2021;09:37:37;Charge to 60% ;03.12.2018;FEY;;LION;49;14500;7200;192;4;54;56;8400;3000;3706;3707;1;13004;25.24;25.64;26,0;BCS1388054;1;17
009654;05.04.2021;10:01:53;Stop          ;03.12.2018;FEY;;LION;49;14500;7200;192;4;58;60;8400;3000;3767;3767;1;13000;26.94;28.84;31,2;BCS1388054;1;17
009654;22.08.2021;11:07:50;Normalcharge  ;03.12.2018;FEY;;LION;49;14500;7200;192;4;44;45;8400;3000;3615;3616;1;12991;22.54;29.54;32,0;BCS1388054;1;10
009654;22.08.2021;11:08:23;Stop          ;03.12.2018;FEY;;LION;49;14500;7200;128;4;44;45;8400;3000;3675;3642;1;12606;22.64;30.74;32,4;BCS1388054;1;10
009654;25.08.2021;08:14:57;Charge to 60% ;03.12.2018;FEY;;LION;49;14500;7200;192;4;43;44;8400;3000;3617;3617;1;12983;30.44;32.04;33,2;BCS1388054;6;10
009654;25.08.2021;09:50:39;Stop          ;03.12.2018;FEY;;LION;49;14500;7200;192;4;58;60;8400;3000;3736;3737;1;12981;34.44;34.94;36,4;BCS1388054;6;10
009654;01.11.2021;09:52:06;Normalcharge  ;03.12.2018;FEY;;LION;49;14500;7200;192;4;53;54;8400;3000;3689;3690;1;13005;24.44;24.34;26,3;BCS1388054;4;9
009654;01.11.2021;09:53:35;Stop          ;03.12.2018;FEY;;LION;49;14500;7200;128;4;53;55;8400;3000;3778;3733;1;12606;24.44;27.74;27,1;BCS1388054;4;9
009654;01.11.2021;10:02:14;Normalcharge  ;03.12.2018;FEY;;LION;49;14500;7200;192;4;53;55;8400;3000;3692;3693;1;12999;24.74;26.64;29,5;BCS1388054;4;9
009654;01.11.2021;10:03:16;Stop          ;03.12.2018;FEY;;LION;49;14500;7200;128;4;53;55;8400;3000;3780;3734;1;12589;24.84;28.84;29,3;BCS1388054;4;9
009654;01.11.2021;10:18:21;Normalcharge  ;03.12.2018;FEY;;LION;49;14500;7200;192;4;53;55;8400;3000;3694;3695;1;13000;25.24;26.04;28,4;BCS1388054;4;9
009654;01.11.2021;10:19:03;Stop          ;03.12.2018;FEY;;LION;49;14500;7200;128;4;53;55;8400;3000;3771;3728;1;12574;25.24;27.64;28,2;BCS1388054;4;9
009654;01.11.2021;10:28:22;Normalcharge  ;03.12.2018;FEY;;LION;49;14500;7200;192;4;53;55;8400;3000;3695;3696;1;13001;25.44;26.24;27,9;BCS1388054;4;9
009654;01.11.2021;10:29:09;Stop          ;03.12.2018;FEY;;LION;49;14500;7200;128;4;53;55;8400;3000;3771;3729;1;12573;25.54;27.84;28,5;BCS1388054;4;9
009654;01.11.2021;10:32:29;Charge to 60% ;03.12.2018;FEY;;LION;49;14500;7200;192;4;53;55;8400;3000;3696;3697;1;13000;25.64;26.74;29,7;BCS1388054;4;9
009654;01.11.2021;15:19:33;Stop          ;03.12.2018;FEY;;LION;49;14500;7200;192;4;58;60;8400;3000;3749;3748;1;13000;28.84;28.94;32,7;BCS1388054;4;9