File: reader/backup_20220209/Batterieverzeichnis_new/009678.txt
Serialnumber ; Date ; Time ; Action ; Date of Manufacture ; Manufacturer ; Battery Name ; Device-Chemistry ; Specification-Info ; Design-Capacity [mAh] ; Design-Voltage [mV] ; Battery Status ; Cycle Count ; SOC [%] ; Relativ SOC[%] ; Desired Voltage [mV]; Desired Current [mA]; Cell Voltage 1 [mV] ; Cell Voltage 2 [mV] ; Max_Error [%] ; Busvoltage[mV] ; Battery Temperature [°C] ; Charger Temperature [°C] ; Batterysystem ; Case ; PLace
009678;10.12.2019;15:28:33;Charge to 30% ;03.12.2018;FEY;;LION;49;14500;7200;224;47;93;99;8400;;4109;4108;1;13000;23.34;27.04;27,1;BCS1388054;1;8
009678;10.12.2019;20:42:16;Stop          ;03.12.2018;FEY;;LION;49;14500;7200;192;47;29;30;8400;3000;3554;3554;1;13000;32.94;35.54;34,1;BCS1388054;1;8
009678;11.12.2019;08:48:18;Fastcharge    ;03.12.2018;FEY;;LION;49;14500;7200;192;47;29;30;8400;3000;3568;3568;1;13000;26.04;28.84;31,9;BCS1388054;1;8
009678;11.12.2019;13:40:21;Stop          ;03.12.2018;FEY;;LION;49;14500;7200;224;47;95;100;8400;;4162;4163;1;13000;29.94;31.04;32,4;BCS1388054;1;8
009678;11.12.2019;15:45:57;Charge to 30% ;03.12.2018;FEY;;LION;49;14500;7200;224;47;97;100;8400;;4153;4153;1;12999;26.94;29.14;31,5;BCS1388054;1;8
009678;11.12.2019;15:46:00;Stop          ;03.12.2018;FEY;;LION;49;14500;7200;224;47;97;100;8400;;4153;4153;1;12999;26.94;29.14;31,5;BCS1388054;1;8
009678;11.12.2019;15:46:13;Charge to 10% ;03.12.2018;FEY;;LION;49;14500;7200;224;47;97;100;8400;;4153;4153;1;13000;26.94;29.14;31,5;BCS1388054;1;8
009678;11.12.2019;22:50:20;Stop          ;03.12.2018;FEY;;LION;49;14500;7200;192;49;10;10;8400;3000;3352;3352;1;13000;33.74;34.04;33,4;BCS1388054;1;8
009678;12.12.2019;08:44:40;Normalcharge  ;03.12.2018;FEY;;LION;49;14500;7200;192;49;9;9;8400;3000;3364;3364;1;12999;26.24;29.04;31,9;BCS1388054;1;8
009678;12.12.2019;16:39:22;Stop          ;03.12.2018;FEY;;LION;49;14500;7200;224;49;97;100;8400;;4163;4164;1;12999;29.04;30.94;31,7;BCS1388054;1;8
009678;13.12.2019;10:47:47;Charge to 10% ;03.12.2018;FEY;;LION;49;14500;7200;224;49;96;100;8400;;4148;4148;1;13000;26.34;29.14;32,0;BCS1388054;1;8
009678;13.12.2019;15:41:58;Stop          ;03.12.2018;FEY;;LION;49;14500;7200;192;49;35;37;8400;3000;3504;3554;1;13628;32.44;39.14;34,6;BCS1388054;1;8
009678;13.12.2019;15:42:01;Cycle         ;03.12.2018;FEY;;LION;49;14500;7200;192;49;35;37;8400;3000;3504;3554;1;13627;32.44;39.14;34,6;BCS1388054;1;8
009678;14.12.2019;22:41:25;Stop          ;03.12.2018;FEY;;LION;49;14500;7200;224;51;94;100;8400;;4152;4153;1;13000;26.44;28.94;31,9;BCS1388054;1;8
009678;16.12.2019;07:43:03;Charge to 10% ;03.12.2018;FEY;;LION;49;14500;7200;224;51;93;100;8400;;4146;4147;1;12998;26.04;28.54;31,9;BCS1388054;1;8
009678;16.12.2019;14:36:13;Stop          ;03.12.2018;FEY;;LION;49;14500;7200;192;52;10;10;8400;3000;3363;3364;1;13000;32.44;33.34;32,4;BCS1388054;1;8
009678;16.12.2019;14:44:00;Charge to 90% ;03.12.2018;FEY;;LION;49;14500;7200;192;52;10;10;8400;3000;3367;3368;1;13000;31.94;31.64;31,7;BCS1388054;1;8
009678;16.12.2019;20:50:03;Stop          ;03.12.2018;FEY;;LION;49;14500;7200;192;52;85;90;8400;3000;4064;4066;1;13001;31.74;33.04;31,7;BCS1388054;1;8
009678;17.12.2019;08:37:36;Fastcharge    ;03.12.2018;FEY;;LION;49;14500;7200;192;52;85;90;8400;3000;4048;4050;1;12999;26.14;28.74;31,6;BCS1388054;1;8
009678;17.12.2019;10:31:11;Stop          ;03.12.2018;FEY;;LION;49;14500;7200;224;52;96;100;8400;;4161;4162;1;13000;27.64;29.94;31,4;BCS1388054;1;8
009678;17.12.2019;13:38:19;Charge to 10% ;03.12.2018;FEY;;LION;49;14500;7200;224;52;96;100;8400;;4149;4150;1;12999;26.44;28.74;30,8;BCS1388054;1;8
009678;17.12.2019;20:33:50;Stop          ;03.12.2018;FEY;;LION;49;14500;7200;192;53;10;10;8400;3000;3360;3360;1;12999;33.74;34.64;34,2;BCS1388054;1;8
009678;18.12.2019;08:31:14;Fastcharge    ;03.12.2018;FEY;;LION;49;14500;7200;192;53;10;10;8400;3000;3372;3373;1;13000;26.24;28.84;31,6;BCS1388054;1;8
009678;18.12.2019;14:28:33;Stop          ;03.12.2018;FEY;;LION;49;14500;7200;224;53;96;100;8400;;4162;4161;1;13000;30.04;30.94;31,9;BCS1388054;1;8
009678;19.12.2019;08:23:45;Charge to 60% ;03.12.2018;FEY;;LION;49;14500;7200;224;53;97;100;8400;;4149;4148;1;12999;26.14;28.74;31,5;BCS1388054;1;8
009678;19.12.2019;11:29:32;Stop          ;03.12.2018;FEY;;LION;49;14500;7200;192;53;58;60;8400;3000;3752;3751;1;13000;33.34;38.64;34,9;BCS1388054;1;8
009678;19.12.2019;12:16:33;Cycle         ;03.12.2018;FEY;;LION;49;14500;7200;192;53;58;60;8400;3000;3776;3774;1;13000;30.24;30.74;32,7;BCS1388054;1;8
009678;20.12.2019;17:26:19;Stop          ;03.12.2018;FEY;;LION;49;14500;7200;224;55;94;100;8400;;4151;4152;1;13001;26.44;28.64;31,2;BCS1388054;1;8
009678;06.01.2020;06:34:38;Charge to 60% ;03.12.2018;FEY;;LION;49;14500;7200;224;55;93;99;8400;;4122;4122;1;13001;26.24;28.74;31,9;BCS1388054;1;8
009678;06.01.2020;09:30:29;Stop          ;03.12.2018;FEY;;LION;49;14500;7200;192;55;57;60;8400;3000;3752;3751;1;13000;32.54;37.74;33,9;BCS1388054;1;8
009678;06.01.2020;09:50:27;Fastcharge    ;03.12.2018;FEY;;LION;49;14500;7200;192;55;57;60;8400;3000;3773;3773;1;13001;31.24;31.34;32,6;BCS1388054;1;8
009678;06.01.2020;13:07:36;Stop          ;03.12.2018;FEY;;LION;49;14500;7200;224;55;95;100;8400;;4163;4164;1;13001;29.44;30.94;31,7;BCS1388054;1;8