File: reader/backup_20220209/Batterieverzeichnis_new/009658.txt
Serialnumber ; Date ; Time ; Action ; Date of Manufacture ; Manufacturer ; Battery Name ; Device-Chemistry ; Specification-Info ; Design-Capacity [mAh] ; Design-Voltage [mV] ; Battery Status ; Cycle Count ; SOC [%] ; Relativ SOC[%] ; Desired Voltage [mV]; Desired Current [mA]; Cell Voltage 1 [mV] ; Cell Voltage 2 [mV] ; Max_Error [%] ; Busvoltage[mV] ; Battery Temperature [°C] ; Charger Temperature [°C] ; Batterysystem ; Case ; PLace
009658;07.12.2020;04:14:25;Cycle          ;04.12.2018;FEY;;LION;49;14500;7200;192;2;99;98;8400;;4152;4150;1;13003;25.74;26.54;30,3;BCS1388054;3;16
009658;08.12.2020;16:19:50;Stop           ;04.12.2018;FEY;;LION;49;14500;7200;192;2;100;99;8400;;4149;4148;1;13003;27.94;28.24;31,9;BCS1388054;3;16
009658;12.01.2021;04:17:47;Charge to 90% ;04.12.2018;FEY;;LION;49;14500;7200;192;2;98;97;8400;;4134;4132;1;13031;23.14;23.64;23,8;BCS1388054;7;2
009658;12.01.2021;04:57:19;Stop          ;04.12.2018;FEY;;LION;49;14500;7200;192;2;91;90;8400;3000;4060;4059;1;13027;26.64;29.34;31,5;BCS1388054;7;2
009658;12.01.2021;05:22:01;Cycle         ;04.12.2018;FEY;;LION;49;14500;7200;192;2;91;90;8400;3000;4066;4065;1;13028;26.74;28.04;30,4;BCS1388054;7;2
009658;13.01.2021;08:19:29;Stop          ;04.12.2018;FEY;;LION;49;14500;7200;224;3;97;99;8400;;4155;4154;1;13027;26.64;28.04;30,7;BCS1388054;7;2
009658;21.02.2021;13:43:32;Normalcharge  ;04.12.2018;FEY;;LION;49;14500;7200;192;4;57;59;8400;3000;3722;3721;1;13001;23.24;25.34;27,5;BCS1388054;2;17
009658;21.02.2021;19:27:00;Stop          ;04.12.2018;FEY;;LION;49;14500;7200;224;4;97;100;8400;;4155;4156;1;13001;26.94;28.44;31,1;BCS1388054;2;17
009658;04.04.2021;11:50:28;Normalcharge  ;04.12.2018;FEY;;LION;49;14500;7200;224;4;96;99;8400;;4130;4130;1;13002;25.14;26.14;27,9;BCS1388054;3;2
009658;04.04.2021;11:51:43;Stop           ;04.12.2018;FEY;;LION;49;14500;7200;224;4;96;99;8400;;4130;4130;1;12797;25.14;26.54;28,6;BCS1388054;3;2
009658;22.08.2021;11:37:25;Normalcharge  ;04.12.2018;FEY;;LION;49;14500;7200;192;4;92;95;8400;3000;4079;4079;1;12989;20.94;28.44;31,9;BCS1388054;4;2
009658;22.08.2021;11:38:13;Stop          ;04.12.2018;FEY;;LION;49;14500;7200;128;4;92;95;8400;3000;4140;4114;1;12640;21.04;30.54;32,1;BCS1388054;4;2
009658;12.10.2021;12:58:56;Normalcharge  ;04.12.2018;FEY;;LION;49;14500;7200;192;4;90;93;8400;3000;4065;4065;1;13006;23.64;27.74;28,5;BCS1388054;6;11
009658;12.10.2021;12:59:25;Stop          ;04.12.2018;FEY;;LION;49;14500;7200;192;4;90;93;8400;3000;4065;4065;1;12973;23.74;28.64;28,6;BCS1388054;6;11
009658;14.10.2021;12:40:03;Normalcharge  ;04.12.2018;FEY;;LION;49;14500;7200;192;4;77;80;8400;3000;3934;3933;1;13006;25.84;26.24;27,9;BCS1388054;3;5
009658;14.10.2021;12:41:32;Stop           ;04.12.2018;FEY;;LION;49;14500;7200;128;4;77;80;8400;3000;4026;3976;1;12614;25.94;29.34;28,4;BCS1388054;3;5