File: reader/backup_20220209/Batterieverzeichnis_new/009684.txt
Serialnumber ; Date ; Time ; Action ; Date of Manufacture ; Manufacturer ; Battery Name ; Device-Chemistry ; Specification-Info ; Design-Capacity [mAh] ; Design-Voltage [mV] ; Battery Status ; Cycle Count ; SOC [%] ; Relativ SOC[%] ; Desired Voltage [mV]; Desired Current [mA]; Cell Voltage 1 [mV] ; Cell Voltage 2 [mV] ; Max_Error [%] ; Busvoltage[mV] ; Battery Temperature [°C] ; Charger Temperature [°C] ; Batterysystem ; Case ; PLace
009684;07.02.2021;08:46:42;Normalcharge  ;03.12.2018;FEY;;LION;49;14500;7200;192;4;96;98;8400;;4119;4119;1;13005;23.04;25.84;29,2;BCS1388054;1;7
009684;07.02.2021;11:52:07;Stop          ;03.12.2018;FEY;;LION;49;14500;7200;192;4;96;98;8400;;4118;4118;1;13005;25.24;27.04;29,7;BCS1388054;1;7
009684;03.03.2021;08:17:29;Normalcharge  ;03.12.2018;FEY;;LION;49;14500;7200;192;4;88;90;8400;3000;4043;4043;1;13000;22.54;23.64;23,5;BCS1388054;4;3
009684;03.03.2021;10:32:46;Stop          ;03.12.2018;FEY;;LION;49;14500;7200;224;4;98;100;8400;;4155;4155;1;12993;27.44;30.34;32,0;BCS1388054;4;3
009684;04.04.2021;11:50:39;Normalcharge  ;03.12.2018;FEY;;LION;49;14500;7200;192;5;54;55;8400;3000;3702;3701;1;13006;24.34;26.34;28,1;BCS1388054;1;7
009684;04.04.2021;11:51:54;Stop          ;03.12.2018;FEY;;LION;49;14500;7200;128;5;54;56;8400;3000;3792;3742;1;12581;24.34;29.04;28,8;BCS1388054;1;7
009684;05.04.2021;09:37:37;Charge to 60% ;03.12.2018;FEY;;LION;49;14500;7200;192;5;54;56;8400;3000;3705;3704;1;13001;24.54;25.74;26,0;BCS1388054;1;18
009684;05.04.2021;10:01:53;Stop          ;03.12.2018;FEY;;LION;49;14500;7200;192;5;58;60;8400;3000;3765;3764;1;12998;26.44;28.94;31,2;BCS1388054;1;18
009684;22.08.2021;11:07:56;Normalcharge  ;03.12.2018;FEY;;LION;49;14500;7200;192;5;45;46;8400;3000;3624;3623;1;12981;21.64;30.24;32,0;BCS1388054;2;15
009684;22.08.2021;11:08:29;Stop          ;03.12.2018;FEY;;LION;49;14500;7200;128;5;45;46;8400;3000;3691;3651;1;12557;21.74;31.44;32,4;BCS1388054;2;15
009684;25.08.2021;08:15:02;Charge to 60% ;03.12.2018;FEY;;LION;49;14500;7200;192;5;45;46;8400;3000;3626;3625;1;12993;29.64;31.94;33,2;BCS1388054;5;14
009684;25.08.2021;13:03:31;Stop          ;03.12.2018;FEY;;LION;49;14500;7200;192;5;58;60;8400;3000;3737;3736;1;12991;32.14;34.94;36,6;BCS1388054;5;14
009684;28.12.2021;09:01:33;Normalcharge  ;03.12.2018;FEY;;LION;49;14500;7200;192;5;41;42;8400;3000;3604;3603;1;13017;23.34;24.24;25,4;BCS1388054;5;9
009684;28.12.2021;09:02:46;Stop          ;03.12.2018;FEY;;LION;49;14500;7200;128;5;42;43;8400;3000;3693;3644;1;12665;23.34;26.94;26,0;BCS1388054;5;9