File: reader/backup_20220209/Batterieverzeichnis_new/009601.txt
Serialnumber ; Date ; Time ; Action ; Date of Manufacture ; Manufacturer ; Battery Name ; Device-Chemistry ; Specification-Info ; Design-Capacity [mAh] ; Design-Voltage [mV] ; Battery Status ; Cycle Count ; SOC [%] ; Relativ SOC[%] ; Desired Voltage [mV]; Desired Current [mA]; Cell Voltage 1 [mV] ; Cell Voltage 2 [mV] ; Max_Error [%] ; Busvoltage[mV] ; Battery Temperature [°C] ; Charger Temperature [°C] ; Batterysystem ; Case ; PLace
009601;07.12.2020;04:14:25;Cycle          ;04.12.2018;FEY;;LION;49;14500;7200;16576;1;97;98;;;4153;4153;1;13013;25.94;27.34;30,3;BCS1388054;3;14
009601;08.12.2020;16:19:50;Stop           ;04.12.2018;FEY;;LION;49;14500;7200;16576;1;97;99;;;4150;4150;1;13014;28.14;29.14;31,9;BCS1388054;3;14
009601;12.01.2021;04:17:47;Charge to 90% ;04.12.2018;FEY;;LION;49;14500;7200;16576;1;95;97;;;4134;4134;1;13033;23.24;23.94;23,8;BCS1388054;7;1
009601;12.01.2021;04:57:19;Stop          ;04.12.2018;FEY;;LION;49;14500;7200;192;1;89;90;8400;3000;4063;4062;1;13028;27.34;29.74;31,5;BCS1388054;7;1
009601;12.01.2021;05:22:01;Cycle         ;04.12.2018;FEY;;LION;49;14500;7200;192;1;89;90;8400;3000;4068;4067;1;13029;27.14;28.34;30,4;BCS1388054;7;1
009601;13.01.2021;08:19:29;Stop          ;04.12.2018;FEY;;LION;49;14500;7200;224;3;97;100;8400;;4154;4156;1;13029;26.74;28.24;30,7;BCS1388054;7;1
009601;21.02.2021;13:43:19;Normalcharge  ;04.12.2018;FEY;;LION;49;14500;7200;192;3;59;61;8400;3000;3748;3755;1;12986;24.14;25.24;27,5;BCS1388054;1;12
009601;22.02.2021;17:08:49;Stop          ;04.12.2018;FEY;;LION;49;14500;7200;224;3;97;100;8400;;4148;4152;1;12987;26.24;26.44;30,0;BCS1388054;1;12
009601;06.04.2021;08:38:50;Normalcharge  ;04.12.2018;FEY;;LION;49;14500;7200;224;3;95;99;8400;;4128;4130;1;13004;21.24;25.24;28,1;BCS1388054;3;1
009601;06.04.2021;08:39:42;Stop           ;04.12.2018;FEY;;LION;49;14500;7200;224;3;95;99;8400;;4128;4130;1;13003;21.34;25.74;28,2;BCS1388054;3;1
009601;08.04.2021;07:58:01;Normalcharge  ;04.12.2018;FEY;;LION;49;14500;7200;224;3;95;99;8400;;4127;4130;1;13005;25.54;25.24;26,4;BCS1388054;3;1
009601;08.04.2021;07:59:40;Stop           ;04.12.2018;FEY;;LION;49;14500;7200;224;3;95;99;8400;;4127;4129;1;13002;25.54;26.54;26,8;BCS1388054;3;1
009601;08.04.2021;10:35:05;Normalcharge  ;04.12.2018;FEY;;LION;49;14500;7200;224;3;95;99;8400;;4127;4129;1;13003;25.84;25.64;28,1;BCS1388054;3;1
009601;08.04.2021;10:36:56;Stop           ;04.12.2018;FEY;;LION;49;14500;7200;224;3;95;99;8400;;4127;4129;1;13002;25.84;27.04;29,0;BCS1388054;3;1
009601;18.04.2021;08:33:50;Normalcharge  ;04.12.2018;FEY;;LION;49;14500;7200;224;3;95;99;8400;;4123;4126;1;13001;26.44;27.04;27,8;BCS1388054;3;1
009601;18.04.2021;08:33:58;Stop           ;04.12.2018;FEY;;LION;49;14500;7200;224;3;95;99;8400;;4123;4126;1;13002;26.44;27.14;27,9;BCS1388054;3;1
009601;04.08.2021;07:24:50;Normalcharge  ;04.12.2018;FEY;;LION;49;14500;7200;192;3;92;96;8400;;4092;4093;1;13000;30.64;31.04;31,6;BCS1388054;3;1
009601;04.08.2021;07:25:37;Stop           ;04.12.2018;FEY;;LION;49;14500;7200;192;3;93;96;8400;;4092;4094;1;12998;30.64;31.64;31,7;BCS1388054;3;1
009601;22.08.2021;11:37:13;Normalcharge  ;04.12.2018;FEY;;LION;49;14500;7200;192;3;93;96;8400;;4087;4089;1;13021;22.74;29.24;31,9;BCS1388054;7;13
009601;22.08.2021;11:37:48;Stop          ;04.12.2018;FEY;;LION;49;14500;7200;192;3;93;96;8400;;4087;4089;1;12996;22.94;29.34;31,9;BCS1388054;7;13
009601;12.10.2021;12:59:04;Normalcharge  ;04.12.2018;FEY;;LION;49;14500;7200;192;3;88;91;8400;3000;4040;4042;1;13026;24.04;27.14;28,5;BCS1388054;7;17
009601;12.10.2021;12:59:37;Stop          ;04.12.2018;FEY;;LION;49;14500;7200;128;3;88;91;8400;3000;4053;4050;1;12928;24.14;28.54;28,6;BCS1388054;7;17
009601;14.10.2021;12:40:12;Normalcharge  ;04.12.2018;FEY;;LION;49;14500;7200;192;3;88;91;8400;3000;4039;4042;1;13000;23.64;25.34;27,9;BCS1388054;5;10
009601;14.10.2021;12:41:50;Stop          ;04.12.2018;FEY;;LION;49;14500;7200;128;3;88;91;8400;3000;4117;4088;1;12632;23.84;28.34;28,5;BCS1388054;5;10
009601;28.12.2021;09:01:29;Normalcharge  ;04.12.2018;FEY;;LION;49;14500;7200;192;3;64;66;8400;3000;3805;3808;1;12996;23.84;23.94;25,4;BCS1388054;4;11
009601;28.12.2021;09:02:38;Stop          ;04.12.2018;FEY;;LION;49;14500;7200;128;3;64;66;8400;3000;3899;3854;1;12560;23.84;26.24;25,8;BCS1388054;4;11