File: reader/backup_20220209/Batterieverzeichnis_new/009633.txt
Serialnumber ; Date ; Time ; Action ; Date of Manufacture ; Manufacturer ; Battery Name ; Device-Chemistry ; Specification-Info ; Design-Capacity [mAh] ; Design-Voltage [mV] ; Battery Status ; Cycle Count ; SOC [%] ; Relativ SOC[%] ; Desired Voltage [mV]; Desired Current [mA]; Cell Voltage 1 [mV] ; Cell Voltage 2 [mV] ; Max_Error [%] ; Busvoltage[mV] ; Battery Temperature [°C] ; Charger Temperature [°C] ; Batterysystem ; Case ; PLace
009633;10.12.2019;15:28:48;Ladung auf 30% ;04.12.2018;FEY;;LION;49;14500;7200;224;53;94;100;8400;;4132;4131;1;13011;22.44;25.24;27,1;BCS1388054;3;13
009633;10.12.2019;20:47:21;Stop           ;04.12.2018;FEY;;LION;49;14500;7200;192;54;29;30;8400;3000;3553;3553;1;13010;34.14;39.34;33,5;BCS1388054;3;13
009633;11.12.2019;08:48:36;Fastcharge    ;04.12.2018;FEY;;LION;49;14500;7200;192;54;29;30;8400;3000;3567;3567;1;13010;26.14;29.04;31,9;BCS1388054;3;13
009633;11.12.2019;13:39:41;Stop           ;04.12.2018;FEY;;LION;49;14500;7200;224;54;95;100;8400;;4164;4164;1;13010;30.54;33.34;32,5;BCS1388054;3;13
009633;11.12.2019;15:46:24;Ladung auf 10% ;04.12.2018;FEY;;LION;49;14500;7200;224;54;97;100;8400;;4154;4153;1;13010;27.14;29.74;31,4;BCS1388054;3;13
009633;11.12.2019;22:48:44;Stop           ;04.12.2018;FEY;;LION;49;14500;7200;192;55;10;10;8400;3000;3351;3351;1;13009;34.94;38.64;33,6;BCS1388054;3;13
009633;12.12.2019;08:44:58;Normalcharge  ;04.12.2018;FEY;;LION;49;14500;7200;192;55;9;10;8400;3000;3363;3364;1;13011;26.34;29.34;31,9;BCS1388054;3;13
009633;12.12.2019;16:39:24;Stop           ;04.12.2018;FEY;;LION;49;14500;7200;224;55;96;100;8400;;4162;4161;1;13010;29.54;32.34;31,7;BCS1388054;3;13
009633;13.12.2019;10:47:57;Ladung auf 10% ;04.12.2018;FEY;;LION;49;14500;7200;224;55;96;100;8400;;4148;4147;1;13009;26.34;29.24;32,0;BCS1388054;3;13
009633;13.12.2019;15:42:18;Stop           ;04.12.2018;FEY;;LION;49;14500;7200;192;56;35;37;8400;3000;3502;3554;1;13548;33.24;43.24;34,6;BCS1388054;3;13
009633;13.12.2019;15:42:20;Cycle          ;04.12.2018;FEY;;LION;49;14500;7200;192;56;35;37;8400;3000;3502;3554;1;13009;33.24;43.24;34,6;BCS1388054;3;13
009633;14.12.2019;22:36:33;Stop           ;04.12.2018;FEY;;LION;49;14500;7200;224;57;94;99;8400;;4151;4152;1;13011;26.54;29.24;31,6;BCS1388054;3;13
009633;16.12.2019;07:43:10;Ladung auf 10% ;04.12.2018;FEY;;LION;49;14500;7200;224;57;94;100;8400;;4145;4146;1;13011;26.14;28.84;31,9;BCS1388054;3;13
009633;16.12.2019;14:34:27;Stop           ;04.12.2018;FEY;;LION;49;14500;7200;192;58;10;10;8400;3000;3264;3318;1;13009;33.34;41.64;32,5;BCS1388054;3;13
009633;16.12.2019;14:44:07;Ladung auf 90% ;04.12.2018;FEY;;LION;49;14500;7200;192;58;10;10;8400;3000;3363;3364;1;13010;32.54;33.54;31,7;BCS1388054;3;13
009633;16.12.2019;20:48:39;Stop           ;04.12.2018;FEY;;LION;49;14500;7200;128;58;85;90;8400;3000;4065;4067;1;13011;32.54;38.84;31,9;BCS1388054;3;13
009633;17.12.2019;08:37:45;Fastcharge    ;04.12.2018;FEY;;LION;49;14500;7200;192;58;85;90;8400;3000;4045;4046;1;13010;26.24;28.94;31,5;BCS1388054;3;13
009633;17.12.2019;10:30:44;Stop           ;04.12.2018;FEY;;LION;49;14500;7200;224;58;95;100;8400;;4162;4161;1;13010;28.24;31.54;31,4;BCS1388054;3;13
009633;17.12.2019;13:38:28;Ladung auf 10% ;04.12.2018;FEY;;LION;49;14500;7200;224;58;95;100;8400;;4150;4149;1;13010;26.54;29.24;30,8;BCS1388054;3;13
009633;17.12.2019;20:32:04;Stop           ;04.12.2018;FEY;;LION;49;14500;7200;192;59;10;10;8400;3000;3264;3317;1;13010;35.04;43.24;34,6;BCS1388054;3;13
009633;18.12.2019;08:31:22;Fastcharge    ;04.12.2018;FEY;;LION;49;14500;7200;192;59;10;10;8400;3000;3370;3371;1;13010;26.34;29.24;31,6;BCS1388054;3;13
009633;18.12.2019;14:26:33;Stop           ;04.12.2018;FEY;;LION;49;14500;7200;224;59;95;100;8400;;4164;4162;1;13010;30.54;33.54;32,5;BCS1388054;3;13
009633;19.12.2019;08:23:54;Ladung auf 60% ;04.12.2018;FEY;;LION;49;14500;7200;224;59;96;100;8400;;4149;4148;1;13009;26.24;29.04;31,6;BCS1388054;3;13
009633;19.12.2019;11:28:29;Stop           ;04.12.2018;FEY;;LION;49;14500;7200;192;60;58;60;8400;3000;3676;3728;1;13009;34.54;44.04;35,1;BCS1388054;3;13
009633;19.12.2019;12:16:41;Cycle          ;04.12.2018;FEY;;LION;49;14500;7200;192;60;58;60;8400;3000;3778;3779;1;13010;30.74;32.04;32,7;BCS1388054;3;13
009633;20.12.2019;17:23:28;Stop           ;04.12.2018;FEY;;LION;49;14500;7200;224;61;94;100;8400;;4152;4152;1;13010;26.74;29.34;31,9;BCS1388054;3;13
009633;06.01.2020;06:34:46;Ladung auf 60% ;04.12.2018;FEY;;LION;49;14500;7200;224;61;93;99;8400;;4123;4122;1;13010;26.44;29.14;31,9;BCS1388054;3;13
009633;06.01.2020;09:29:20;Stop           ;04.12.2018;FEY;;LION;49;14500;7200;192;62;57;60;8400;3000;3755;3756;1;13009;33.64;42.74;34,2;BCS1388054;3;13
009633;06.01.2020;09:50:34;Fastcharge    ;04.12.2018;FEY;;LION;49;14500;7200;192;62;57;60;8400;3000;3776;3779;1;13011;31.94;32.94;32,7;BCS1388054;3;13
009633;06.01.2020;13:06:26;Stop           ;04.12.2018;FEY;;LION;49;14500;7200;224;62;95;100;8400;;4163;4162;1;13010;30.14;32.94;32,1;BCS1388054;3;13