File: reader/backup_20220209/Batterieverzeichnis_new/009694.txt
Serialnumber ; Date ; Time ; Action ; Date of Manufacture ; Manufacturer ; Battery Name ; Device-Chemistry ; Specification-Info ; Design-Capacity [mAh] ; Design-Voltage [mV] ; Battery Status ; Cycle Count ; SOC [%] ; Relativ SOC[%] ; Desired Voltage [mV]; Desired Current [mA]; Cell Voltage 1 [mV] ; Cell Voltage 2 [mV] ; Max_Error [%] ; Busvoltage[mV] ; Battery Temperature [°C] ; Charger Temperature [°C] ; Batterysystem ; Case ; PLace
009694;10.12.2019;15:28:48;Ladung auf 30% ;04.12.2018;FEY;;LION;49;14500;7200;224;54;93;99;8400;;4130;4130;1;13016;23.14;23.64;27,1;BCS1388054;3;17
009694;10.12.2019;20:47:21;Stop           ;04.12.2018;FEY;;LION;49;14500;7200;192;55;29;30;8400;3000;3563;3563;1;13014;34.04;33.94;33,5;BCS1388054;3;17
009694;11.12.2019;08:48:36;Fastcharge    ;04.12.2018;FEY;;LION;49;14500;7200;192;55;29;30;8400;3000;3569;3570;1;13013;26.74;27.24;31,9;BCS1388054;3;17
009694;11.12.2019;13:39:41;Stop           ;04.12.2018;FEY;;LION;49;14500;7200;224;55;94;100;8400;;4159;4159;1;13013;30.84;30.24;32,5;BCS1388054;3;17
009694;11.12.2019;15:46:24;Ladung auf 10% ;04.12.2018;FEY;;LION;49;14500;7200;224;55;95;99;8400;;4152;4152;1;13014;27.64;27.94;31,4;BCS1388054;3;17
009694;11.12.2019;22:48:44;Stop           ;04.12.2018;FEY;;LION;49;14500;7200;192;56;10;10;8400;3000;3362;3363;1;13014;34.74;34.04;33,6;BCS1388054;3;17
009694;12.12.2019;08:44:58;Normalcharge  ;04.12.2018;FEY;;LION;49;14500;7200;192;56;9;10;8400;3000;3369;3370;1;13014;26.84;27.54;31,9;BCS1388054;3;17
009694;12.12.2019;16:39:24;Stop           ;04.12.2018;FEY;;LION;49;14500;7200;224;56;96;100;8400;;4158;4158;1;13014;29.84;29.74;31,7;BCS1388054;3;17
009694;13.12.2019;10:47:57;Ladung auf 10% ;04.12.2018;FEY;;LION;49;14500;7200;224;56;95;100;8400;;4147;4147;1;13013;26.94;27.54;32,0;BCS1388054;3;17
009694;13.12.2019;15:42:18;Stop           ;04.12.2018;FEY;;LION;49;14500;7200;192;57;34;36;8400;3000;3499;3549;1;13566;33.74;39.74;34,6;BCS1388054;3;17
009694;13.12.2019;15:42:20;Cycle          ;04.12.2018;FEY;;LION;49;14500;7200;192;57;34;36;8400;3000;3499;3549;1;13012;33.74;39.74;34,6;BCS1388054;3;17
009694;14.12.2019;22:36:33;Stop           ;04.12.2018;FEY;;LION;49;14500;7200;224;58;93;100;8400;;4151;4151;1;13015;27.14;27.44;31,6;BCS1388054;3;17
009694;16.12.2019;07:43:10;Ladung auf 10% ;04.12.2018;FEY;;LION;49;14500;7200;224;58;94;100;8400;;4145;4145;1;13014;26.64;26.84;31,9;BCS1388054;3;17
009694;16.12.2019;14:34:27;Stop           ;04.12.2018;FEY;;LION;49;14500;7200;192;59;10;10;8400;3000;3366;3366;1;13014;33.64;33.34;32,5;BCS1388054;3;17
009694;16.12.2019;14:44:07;Ladung auf 90% ;04.12.2018;FEY;;LION;49;14500;7200;192;59;10;10;8400;3000;3368;3368;1;13015;32.84;31.54;31,7;BCS1388054;3;17
009694;16.12.2019;20:48:39;Stop           ;04.12.2018;FEY;;LION;49;14500;7200;192;59;84;90;8400;3000;4056;4057;1;13015;32.54;32.34;31,9;BCS1388054;3;17
009694;17.12.2019;08:37:45;Fastcharge    ;04.12.2018;FEY;;LION;49;14500;7200;192;59;84;90;8400;3000;4047;4047;1;13015;26.74;27.24;31,5;BCS1388054;3;17
009694;17.12.2019;10:30:44;Stop           ;04.12.2018;FEY;;LION;49;14500;7200;224;59;94;100;8400;;4160;4160;1;13015;28.54;29.34;31,4;BCS1388054;3;17
009694;17.12.2019;13:38:28;Ladung auf 10% ;04.12.2018;FEY;;LION;49;14500;7200;224;59;94;100;8400;;4148;4148;1;13014;27.14;27.44;30,8;BCS1388054;3;17
009694;17.12.2019;20:32:04;Stop           ;04.12.2018;FEY;;LION;49;14500;7200;192;60;10;10;8400;3000;3365;3366;1;13014;34.94;34.74;34,6;BCS1388054;3;17
009694;18.12.2019;08:31:22;Fastcharge    ;04.12.2018;FEY;;LION;49;14500;7200;192;60;10;10;8400;3000;3374;3375;1;13015;26.84;27.44;31,6;BCS1388054;3;17
009694;18.12.2019;14:26:33;Stop           ;04.12.2018;FEY;;LION;49;14500;7200;224;60;94;100;8400;;4159;4159;1;13014;30.94;30.34;32,5;BCS1388054;3;17
009694;19.12.2019;08:23:54;Ladung auf 60% ;04.12.2018;FEY;;LION;49;14500;7200;224;60;95;100;8400;;4148;4148;1;13015;26.74;27.24;31,6;BCS1388054;3;17
009694;19.12.2019;11:28:29;Stop           ;04.12.2018;FEY;;LION;49;14500;7200;192;61;57;60;8400;3000;3765;3765;1;13013;34.74;36.34;35,1;BCS1388054;3;17
009694;19.12.2019;12:16:41;Cycle          ;04.12.2018;FEY;;LION;49;14500;7200;192;61;57;60;8400;3000;3777;3777;1;13014;31.34;30.04;32,7;BCS1388054;3;17
009694;20.12.2019;17:23:28;Stop           ;04.12.2018;FEY;;LION;49;14500;7200;224;62;93;100;8400;;4151;4151;1;13014;27.14;27.54;31,9;BCS1388054;3;17
009694;06.01.2020;06:34:46;Ladung auf 60% ;04.12.2018;FEY;;LION;49;14500;7200;224;62;92;99;8400;;4122;4122;1;13015;26.84;27.34;31,9;BCS1388054;3;17
009694;06.01.2020;09:29:20;Stop           ;04.12.2018;FEY;;LION;49;14500;7200;192;62;57;60;8400;3000;3764;3764;1;13013;33.94;35.74;34,2;BCS1388054;3;17
009694;06.01.2020;09:50:34;Fastcharge    ;04.12.2018;FEY;;LION;49;14500;7200;192;62;57;60;8400;3000;3774;3775;1;13014;32.44;30.94;32,7;BCS1388054;3;17
009694;06.01.2020;13:06:26;Stop           ;04.12.2018;FEY;;LION;49;14500;7200;224;62;94;100;8400;;4159;4160;1;13016;30.44;30.14;32,1;BCS1388054;3;17