File: reader/backup_20220209/Batterieverzeichnis_new/009728.txt
Serialnumber ; Date ; Time ; Action ; Date of Manufacture ; Manufacturer ; Battery Name ; Device-Chemistry ; Specification-Info ; Design-Capacity [mAh] ; Design-Voltage [mV] ; Battery Status ; Cycle Count ; SOC [%] ; Relativ SOC[%] ; Desired Voltage [mV]; Desired Current [mA]; Cell Voltage 1 [mV] ; Cell Voltage 2 [mV] ; Max_Error [%] ; Busvoltage[mV] ; Battery Temperature [°C] ; Charger Temperature [°C] ; Batterysystem ; Case ; PLace
009728;07.12.2020;04:14:17;Cycle         ;04.12.2018;FEY;;LION;49;14500;7200;224;2;98;99;8400;;4124;4125;1;13001;26.04;27.14;30,3;BCS1388054;1;17
009728;08.12.2020;16:19:38;Stop          ;04.12.2018;FEY;;LION;49;14500;7200;224;4;97;100;8400;;4153;4156;1;13000;27.64;28.44;31,9;BCS1388054;1;17
009728;03.03.2021;08:17:35;Normalcharge  ;04.12.2018;FEY;;LION;49;14500;7200;192;4;72;74;8400;3000;3885;3886;1;13014;23.54;23.74;23,6;BCS1388054;5;16
009728;03.03.2021;11:26:36;Stop          ;04.12.2018;FEY;;LION;49;14500;7200;224;4;97;100;8400;;4161;4163;1;13009;29.34;29.84;31,5;BCS1388054;5;16
009728;06.04.2021;08:38:46;Normalcharge  ;04.12.2018;FEY;;LION;49;14500;7200;224;4;96;99;8400;;4133;4134;1;13012;21.04;25.04;28,1;BCS1388054;2;16
009728;06.04.2021;08:39:36;Stop          ;04.12.2018;FEY;;LION;49;14500;7200;224;4;96;99;8400;;4133;4134;1;13009;21.04;25.34;28,2;BCS1388054;2;16
009728;08.04.2021;07:57:57;Normalcharge  ;04.12.2018;FEY;;LION;49;14500;7200;224;4;96;99;8400;;4132;4134;1;13012;25.64;25.24;26,3;BCS1388054;2;16
009728;08.04.2021;07:59:45;Stop          ;04.12.2018;FEY;;LION;49;14500;7200;224;4;96;99;8400;;4132;4134;1;13010;25.64;26.04;26,8;BCS1388054;2;16
009728;08.04.2021;10:35:00;Normalcharge  ;04.12.2018;FEY;;LION;49;14500;7200;224;4;96;99;8400;;4132;4134;1;13012;26.04;25.64;28,1;BCS1388054;2;16
009728;08.04.2021;10:36:53;Stop          ;04.12.2018;FEY;;LION;49;14500;7200;224;4;96;99;8400;;4132;4134;1;13008;26.14;26.64;28,9;BCS1388054;2;16
009728;18.04.2021;08:33:36;Normalcharge  ;04.12.2018;FEY;;LION;49;14500;7200;224;4;95;99;8400;;4128;4130;1;13010;26.54;26.64;27,7;BCS1388054;2;16
009728;18.04.2021;08:33:44;Stop          ;04.12.2018;FEY;;LION;49;14500;7200;224;4;95;99;8400;;4128;4130;1;13010;26.54;26.74;27,8;BCS1388054;2;16
009728;04.08.2021;07:24:55;Normalcharge  ;04.12.2018;FEY;;LION;49;14500;7200;192;4;93;96;8400;;4095;4096;1;13001;30.84;31.04;31,5;BCS1388054;2;16
009728;04.08.2021;07:25:47;Stop          ;04.12.2018;FEY;;LION;49;14500;7200;192;4;93;96;8400;;4095;4096;1;13000;30.84;31.34;31,9;BCS1388054;2;16
009728;22.08.2021;11:08:09;Normalcharge  ;04.12.2018;FEY;;LION;49;14500;7200;192;4;67;70;8400;3000;3845;3847;1;12991;23.74;28.64;32,1;BCS1388054;5;13
009728;22.08.2021;11:08:42;Stop          ;04.12.2018;FEY;;LION;49;14500;7200;128;4;67;70;8400;3000;3870;3858;1;12835;23.74;29.94;32,5;BCS1388054;5;13
009728;14.10.2021;12:39:58;Normalcharge  ;04.12.2018;FEY;;LION;49;14500;7200;192;5;43;45;8400;3000;3617;3618;1;13004;25.14;26.14;27,9;BCS1388054;2;16
009728;14.10.2021;12:41:25;Stop          ;04.12.2018;FEY;;LION;49;14500;7200;128;5;43;45;8400;3000;3704;3658;1;12553;25.24;29.34;28,2;BCS1388054;2;16
009728;01.11.2021;09:52:15;Normalcharge  ;04.12.2018;FEY;;LION;49;14500;7200;192;5;43;44;8400;3000;3616;3617;1;13006;26.14;25.94;26,3;BCS1388054;2;16
009728;01.11.2021;09:53:18;Stop          ;04.12.2018;FEY;;LION;49;14500;7200;128;5;43;45;8400;3000;3701;3654;1;12499;26.24;28.44;26,8;BCS1388054;2;16
009728;01.11.2021;10:02:05;Normalcharge  ;04.12.2018;FEY;;LION;49;14500;7200;192;5;43;45;8400;3000;3618;3619;1;12998;26.34;27.54;29,5;BCS1388054;2;16
009728;01.11.2021;10:03:24;Stop          ;04.12.2018;FEY;;LION;49;14500;7200;128;5;43;45;8400;3000;3706;3657;1;12492;26.34;30.04;29,3;BCS1388054;2;16
009728;01.11.2021;10:18:11;Normalcharge  ;04.12.2018;FEY;;LION;49;14500;7200;192;5;43;45;8400;3000;3620;3621;1;12995;26.54;26.94;28,4;BCS1388054;2;16
009728;01.11.2021;10:18:48;Stop          ;04.12.2018;FEY;;LION;49;14500;7200;128;5;43;45;8400;3000;3663;3638;1;12581;26.54;28.04;28,2;BCS1388054;2;16
009728;01.11.2021;10:28:53;Normalcharge  ;04.12.2018;FEY;;LION;49;14500;7200;192;5;43;45;8400;3000;3620;3621;1;13000;26.54;27.24;28,2;BCS1388054;2;16
009728;01.11.2021;10:29:00;Stop          ;04.12.2018;FEY;;LION;49;14500;7200;192;5;43;45;8400;3000;3620;3621;1;12986;26.54;27.34;28,4;BCS1388054;2;16
009728;01.11.2021;10:32:00;Charge to 60% ;04.12.2018;FEY;;LION;49;14500;7200;192;5;43;45;8400;3000;3620;3620;1;12999;26.64;21.84;29,7;BCS1388054;2;16
009728;01.11.2021;11:53:40;Stop          ;04.12.2018;FEY;;LION;49;14500;7200;192;5;57;60;8400;3000;3730;3732;1;12998;30.04;29.74;32,5;BCS1388054;2;16