File: reader/backup_20220209/Batterieverzeichnis_new/009712.txt
Serialnumber ; Date ; Time ; Action ; Date of Manufacture ; Manufacturer ; Battery Name ; Device-Chemistry ; Specification-Info ; Design-Capacity [mAh] ; Design-Voltage [mV] ; Battery Status ; Cycle Count ; SOC [%] ; Relativ SOC[%] ; Desired Voltage [mV]; Desired Current [mA]; Cell Voltage 1 [mV] ; Cell Voltage 2 [mV] ; Max_Error [%] ; Busvoltage[mV] ; Battery Temperature [°C] ; Charger Temperature [°C] ; Batterysystem ; Case ; PLace
009712;29.11.2020;04:25:09;Cycle         ;04.12.2018;FEY;;LION;49;14500;7200;192;4;68;69;8400;3000;3845;3846;1;12995;25.14;25.64;25,6;BCS1388054;1;2
009712;12.01.2021;04:16:00;Charge to 90% ;04.12.2018;FEY;;LION;49;14500;7200;224;5;95;99;8400;;4128;4129;1;13004;22.94;17.04;23,0;BCS1388054;1;15
009712;12.01.2021;04:16:03;Stop          ;04.12.2018;FEY;;LION;49;14500;7200;224;5;95;99;8400;;4128;4129;1;13005;22.94;23.84;23,0;BCS1388054;1;15
009712;12.01.2021;04:17:15;Charge to 90% ;04.12.2018;FEY;;LION;49;14500;7200;224;5;95;99;8400;;4128;4128;1;13003;23.04;24.64;23,5;BCS1388054;1;15
009712;12.01.2021;04:55:18;Stop          ;04.12.2018;FEY;;LION;49;14500;7200;192;5;83;90;8400;3000;4028;4029;1;12994;26.74;36.74;31,7;BCS1388054;1;15
009712;12.01.2021;05:21:33;Cycle         ;04.12.2018;FEY;;LION;49;14500;7200;192;5;83;90;8400;3000;4050;4051;1;12996;26.74;29.64;30,6;BCS1388054;1;15
009712;13.01.2021;08:18:34;Stop          ;04.12.2018;FEY;;LION;49;14500;7200;224;7;95;100;8400;;4155;4155;1;12995;26.64;29.44;30,7;BCS1388054;1;15
009712;21.02.2021;13:43:19;Normalcharge  ;04.12.2018;FEY;;LION;49;14500;7200;192;7;54;57;8400;3000;3720;3720;1;13004;23.74;24.64;27,5;BCS1388054;1;13
009712;22.02.2021;17:08:49;Stop          ;04.12.2018;FEY;;LION;49;14500;7200;224;7;94;100;8400;;4148;4147;1;13004;26.14;26.74;30,0;BCS1388054;1;13
009712;06.04.2021;08:38:50;Normalcharge  ;04.12.2018;FEY;;LION;49;14500;7200;224;7;92;99;8400;;4128;4127;1;13008;20.74;24.44;28,1;BCS1388054;3;4
009712;06.04.2021;08:39:42;Stop           ;04.12.2018;FEY;;LION;49;14500;7200;224;7;92;99;8400;;4128;4127;1;13007;20.84;24.84;28,2;BCS1388054;3;4
009712;08.04.2021;07:58:01;Normalcharge  ;04.12.2018;FEY;;LION;49;14500;7200;224;7;92;99;8400;;4128;4127;1;13008;25.24;24.74;26,4;BCS1388054;3;4
009712;08.04.2021;07:59:40;Stop           ;04.12.2018;FEY;;LION;49;14500;7200;224;7;92;99;8400;;4127;4127;1;13008;25.24;25.54;26,8;BCS1388054;3;4
009712;08.04.2021;10:35:05;Normalcharge  ;04.12.2018;FEY;;LION;49;14500;7200;224;7;92;99;8400;;4128;4127;1;13009;25.44;25.04;28,1;BCS1388054;3;4
009712;08.04.2021;10:36:56;Stop           ;04.12.2018;FEY;;LION;49;14500;7200;224;7;92;99;8400;;4128;4127;1;13007;25.44;25.94;29,0;BCS1388054;3;4
009712;18.04.2021;08:33:50;Normalcharge  ;04.12.2018;FEY;;LION;49;14500;7200;192;7;92;98;8400;;4124;4123;1;13006;26.14;26.14;27,8;BCS1388054;3;4
009712;18.04.2021;08:33:58;Stop           ;04.12.2018;FEY;;LION;49;14500;7200;192;7;92;98;8400;;4124;4123;1;13006;26.14;26.14;27,9;BCS1388054;3;4
009712;04.08.2021;07:24:50;Normalcharge  ;04.12.2018;FEY;;LION;49;14500;7200;192;7;90;96;8400;;4092;4092;1;12999;30.34;30.34;31,6;BCS1388054;3;4
009712;04.08.2021;07:25:37;Stop           ;04.12.2018;FEY;;LION;49;14500;7200;192;7;90;96;8400;;4092;4092;1;12998;30.34;30.74;31,7;BCS1388054;3;4
009712;22.08.2021;11:37:12;Normalcharge  ;04.12.2018;FEY;;LION;49;14500;7200;192;7;90;96;8400;;4088;4087;1;13025;23.44;29.74;31,9;BCS1388054;7;1
009712;22.08.2021;11:37:48;Stop          ;04.12.2018;FEY;;LION;49;14500;7200;192;7;90;96;8400;;4088;4088;1;13008;23.54;30.14;31,9;BCS1388054;7;1
009712;14.10.2021;12:39:57;Normalcharge  ;04.12.2018;FEY;;LION;49;14500;7200;192;7;87;93;8400;3000;4074;4074;1;13004;24.94;27.34;27,9;BCS1388054;2;5
009712;14.10.2021;12:41:24;Stop          ;04.12.2018;FEY;;LION;49;14500;7200;128;7;87;93;8400;3000;4137;4113;1;12570;25.04;29.84;28,2;BCS1388054;2;5
009712;01.11.2021;09:52:11;Normalcharge  ;04.12.2018;FEY;;LION;49;14500;7200;192;7;86;91;8400;3000;4046;4046;1;13005;24.04;24.94;26,4;BCS1388054;3;9
009712;01.11.2021;09:53:26;Stop           ;04.12.2018;FEY;;LION;49;14500;7200;128;7;86;91;8400;3000;4119;4089;1;12608;24.14;27.54;27,1;BCS1388054;3;9
009712;01.11.2021;10:02:09;Normalcharge  ;04.12.2018;FEY;;LION;49;14500;7200;192;7;86;91;8400;3000;4048;4048;1;12998;24.34;27.14;29,5;BCS1388054;3;9
009712;01.11.2021;10:03:20;Stop           ;04.12.2018;FEY;;LION;49;14500;7200;128;7;86;91;8400;3000;4118;4090;1;12599;24.44;29.14;29,5;BCS1388054;3;9
009712;28.12.2021;09:01:29;Normalcharge  ;04.12.2018;FEY;;LION;49;14500;7200;192;7;70;75;8400;3000;3891;3891;1;13003;23.74;23.94;25,4;BCS1388054;4;6
009712;28.12.2021;09:02:38;Stop          ;04.12.2018;FEY;;LION;49;14500;7200;128;7;70;75;8400;3000;3984;3938;1;12585;23.74;25.94;25,8;BCS1388054;4;6