File: reader/backup_20220209/Batterieverzeichnis_new/009757.txt
Serialnumber ; Date ; Time ; Action ; Date of Manufacture ; Manufacturer ; Battery Name ; Device-Chemistry ; Specification-Info ; Design-Capacity [mAh] ; Design-Voltage [mV] ; Battery Status ; Cycle Count ; SOC [%] ; Relativ SOC[%] ; Desired Voltage [mV]; Desired Current [mA]; Cell Voltage 1 [mV] ; Cell Voltage 2 [mV] ; Max_Error [%] ; Busvoltage[mV] ; Battery Temperature [°C] ; Charger Temperature [°C] ; Batterysystem ; Case ; PLace
009757;07.12.2020;04:14:32;Cycle         ;04.12.2018;FEY;;LION;49;14500;7200;192;2;94;98;8400;;4132;4130;1;13014;25.94;27.34;30,3;BCS1388054;5;18
009757;08.12.2020;16:20:01;Stop          ;04.12.2018;FEY;;LION;49;14500;7200;192;2;94;98;8400;;4130;4128;1;13013;27.74;28.94;31,7;BCS1388054;5;18
009757;07.02.2021;08:46:59;Normalcharge  ;04.12.2018;FEY;;LION;49;14500;7200;192;2;92;93;8400;3000;4086;4085;1;13000;23.64;26.64;29,2;BCS1388054;4;3
009757;07.02.2021;11:52:20;Stop          ;04.12.2018;FEY;;LION;49;14500;7200;224;2;99;100;8400;;4149;4148;1;12998;26.04;27.84;29,7;BCS1388054;4;3
009757;03.03.2021;08:17:35;Normalcharge  ;04.12.2018;FEY;;LION;49;14500;7200;192;2;78;80;8400;3000;3935;3934;1;13015;23.24;23.44;23,6;BCS1388054;5;4
009757;03.03.2021;11:26:36;Stop          ;04.12.2018;FEY;;LION;49;14500;7200;224;2;97;100;8400;;4155;4154;1;13009;28.34;29.34;31,5;BCS1388054;5;4
009757;04.04.2021;11:50:39;Normalcharge  ;04.12.2018;FEY;;LION;49;14500;7200;224;2;96;99;8400;;4134;4133;1;12992;25.04;26.04;28,1;BCS1388054;1;5
009757;04.04.2021;11:51:54;Stop          ;04.12.2018;FEY;;LION;49;14500;7200;224;2;96;99;8400;;4133;4132;1;12558;25.14;26.44;28,8;BCS1388054;1;5
009757;22.08.2021;11:07:55;Normalcharge  ;04.12.2018;FEY;;LION;49;14500;7200;192;2;83;86;8400;3000;3979;3979;1;12996;22.34;31.14;32,0;BCS1388054;2;3
009757;22.08.2021;11:08:28;Stop          ;04.12.2018;FEY;;LION;49;14500;7200;128;2;83;86;8400;3000;4015;3997;1;12627;22.44;32.14;32,4;BCS1388054;2;3
009757;14.10.2021;12:39:58;Normalcharge  ;04.12.2018;FEY;;LION;49;14500;7200;192;2;79;82;8400;3000;3943;3942;1;12994;24.64;26.74;27,9;BCS1388054;2;17
009757;14.10.2021;12:41:25;Stop          ;04.12.2018;FEY;;LION;49;14500;7200;128;2;80;82;8400;3000;4040;3991;1;12541;24.74;30.54;28,2;BCS1388054;2;17
009757;01.11.2021;09:52:10;Normalcharge  ;04.12.2018;FEY;;LION;49;14500;7200;192;2;77;79;8400;3000;3918;3917;1;12994;24.34;25.34;26,4;BCS1388054;3;8
009757;01.11.2021;09:53:26;Stop           ;04.12.2018;FEY;;LION;49;14500;7200;128;2;77;80;8400;3000;4012;3963;1;12602;24.44;28.44;27,1;BCS1388054;3;8
009757;01.11.2021;10:02:09;Normalcharge  ;04.12.2018;FEY;;LION;49;14500;7200;192;2;77;80;8400;3000;3920;3920;1;12989;24.74;27.84;29,5;BCS1388054;3;8
009757;01.11.2021;10:03:20;Stop           ;04.12.2018;FEY;;LION;49;14500;7200;128;2;77;80;8400;3000;4015;3966;1;12591;24.84;30.14;29,5;BCS1388054;3;8