File: reader/backup_20220209/Batterieverzeichnis_new/009856.txt
Serialnumber ; Date ; Time ; Action ; Date of Manufacture ; Manufacturer ; Battery Name ; Device-Chemistry ; Specification-Info ; Design-Capacity [mAh] ; Design-Voltage [mV] ; Battery Status ; Cycle Count ; SOC [%] ; Relativ SOC[%] ; Desired Voltage [mV]; Desired Current [mA]; Cell Voltage 1 [mV] ; Cell Voltage 2 [mV] ; Max_Error [%] ; Busvoltage[mV] ; Battery Temperature [°C] ; Charger Temperature [°C] ; Batterysystem ; Case ; PLace
009856;10.12.2019;15:29:01;Charge to 30% ;03.12.2018;FEY;;LION;49;14500;7200;224;48;92;100;8400;;4129;4128;1;13010;22.44;24.24;27,1;BCS1388054;5;12
009856;10.12.2019;20:48:54;Stop          ;03.12.2018;FEY;;LION;49;14500;7200;192;49;28;30;8400;3000;3562;3561;1;13006;31.94;31.54;33,1;BCS1388054;5;12
009856;11.12.2019;08:48:53;Fastcharge    ;03.12.2018;FEY;;LION;49;14500;7200;192;49;28;30;8400;3000;3568;3568;1;13006;26.14;27.44;31,9;BCS1388054;5;12
009856;11.12.2019;13:40:11;Stop          ;03.12.2018;FEY;;LION;49;14500;7200;224;49;93;100;8400;;4160;4161;1;13008;28.74;29.14;32,4;BCS1388054;5;12
009856;11.12.2019;15:46:40;Charge to 10% ;03.12.2018;FEY;;LION;49;14500;7200;224;49;95;100;8400;;4152;4152;1;13008;26.74;27.44;31,4;BCS1388054;5;12
009856;11.12.2019;22:49:07;Stop          ;03.12.2018;FEY;;LION;49;14500;7200;192;50;10;10;8400;3000;3355;3355;1;13005;32.44;32.14;33,5;BCS1388054;5;12
009856;12.12.2019;08:45:10;Normalcharge  ;03.12.2018;FEY;;LION;49;14500;7200;192;50;9;10;8400;3000;3363;3364;1;13007;26.34;27.34;31,7;BCS1388054;5;12
009856;12.12.2019;16:41:20;Stop          ;03.12.2018;FEY;;LION;49;14500;7200;224;50;95;100;8400;;4158;4159;1;13006;28.24;28.64;31,6;BCS1388054;5;12
009856;13.12.2019;10:48:05;Charge to 10% ;03.12.2018;FEY;;LION;49;14500;7200;224;50;95;100;8400;;4147;4148;1;13007;26.34;27.64;32,0;BCS1388054;5;12
009856;13.12.2019;15:40:55;Stop          ;03.12.2018;FEY;;LION;49;14500;7200;192;51;34;36;8400;3000;3497;3548;1;13523;31.54;33.84;34,6;BCS1388054;5;12
009856;13.12.2019;15:41:42;Cycle         ;03.12.2018;FEY;;LION;49;14500;7200;192;51;34;36;8400;3000;3580;3579;1;13005;31.54;32.04;34,5;BCS1388054;5;12
009856;14.12.2019;22:39:35;Stop          ;03.12.2018;FEY;;LION;49;14500;7200;224;52;91;99;8400;;4150;4149;1;13007;26.34;27.44;31,7;BCS1388054;5;12
009856;16.12.2019;07:43:20;Charge to 10% ;03.12.2018;FEY;;LION;49;14500;7200;224;52;92;100;8400;;4145;4144;1;13008;26.04;26.54;31,9;BCS1388054;5;12
009856;16.12.2019;14:34:29;Stop          ;03.12.2018;FEY;;LION;49;14500;7200;192;53;10;10;8400;3000;3366;3366;1;13007;30.94;30.54;32,5;BCS1388054;5;12
009856;16.12.2019;14:44:17;Charge to 90% ;03.12.2018;FEY;;LION;49;14500;7200;192;53;10;10;8400;3000;3368;3368;1;13006;30.14;29.54;31,9;BCS1388054;5;12
009856;16.12.2019;20:48:55;Stop          ;03.12.2018;FEY;;LION;49;14500;7200;192;53;83;90;8400;3000;4053;4054;1;13007;30.14;30.04;31,9;BCS1388054;5;12
009856;17.12.2019;08:37:54;Fastcharge    ;03.12.2018;FEY;;LION;49;14500;7200;192;53;83;90;8400;3000;4045;4045;1;13008;26.14;27.44;31,6;BCS1388054;5;12
009856;17.12.2019;10:33:46;Stop          ;03.12.2018;FEY;;LION;49;14500;7200;224;53;93;100;8400;;4160;4162;1;13008;27.44;28.04;31,1;BCS1388054;5;12
009856;17.12.2019;10:33:46;Stop          ;03.12.2018;FEY;;LION;49;14500;7200;224;53;93;100;8400;;4160;4162;1;13008;27.44;28.04;31,1;BCS1388054;5;12
009856;17.12.2019;13:38:36;Charge to 10% ;03.12.2018;FEY;;LION;49;14500;7200;224;53;93;100;8400;;4149;4150;1;13007;26.44;27.24;30,8;BCS1388054;5;12
009856;17.12.2019;20:33:18;Stop          ;03.12.2018;FEY;;LION;49;14500;7200;192;54;10;10;8400;3000;3365;3366;1;13006;32.44;32.24;34,5;BCS1388054;5;12
009856;18.12.2019;08:31:30;Fastcharge    ;03.12.2018;FEY;;LION;49;14500;7200;192;54;10;10;8400;3000;3374;3374;1;13008;26.34;27.24;31,6;BCS1388054;5;12
009856;18.12.2019;14:29:27;Stop          ;03.12.2018;FEY;;LION;49;14500;7200;224;54;93;100;8400;;4159;4161;1;13007;28.74;28.94;31,7;BCS1388054;5;12
009856;19.12.2019;08:24:02;Charge to 60% ;03.12.2018;FEY;;LION;49;14500;7200;224;54;94;100;8400;;4148;4149;1;13007;26.24;27.44;31,5;BCS1388054;5;12
009856;19.12.2019;11:31:09;Stop          ;03.12.2018;FEY;;LION;49;14500;7200;192;55;57;60;8400;3000;3765;3768;1;13005;32.64;32.24;34,4;BCS1388054;5;12
009856;19.12.2019;12:16:49;Cycle         ;03.12.2018;FEY;;LION;49;14500;7200;192;55;57;60;8400;3000;3773;3777;1;13007;29.04;29.34;32,7;BCS1388054;5;12
009856;20.12.2019;17:27:50;Stop          ;03.12.2018;FEY;;LION;49;14500;7200;224;56;92;100;8400;;4151;4150;1;13008;26.44;27.14;31,0;BCS1388054;5;12
009856;06.01.2020;06:34:55;Charge to 60% ;03.12.2018;FEY;;LION;49;14500;7200;224;56;91;99;8400;;4122;4121;1;13007;26.54;27.54;31,9;BCS1388054;5;12
009856;06.01.2020;09:30:26;Stop          ;03.12.2018;FEY;;LION;49;14500;7200;192;56;56;60;8400;3000;3766;3767;1;13006;31.94;31.64;33,9;BCS1388054;5;12
009856;06.01.2020;09:50:42;Fastcharge    ;03.12.2018;FEY;;LION;49;14500;7200;192;56;56;60;8400;3000;3773;3774;1;13008;30.14;30.04;32,7;BCS1388054;5;12
009856;06.01.2020;13:09:56;Stop          ;03.12.2018;FEY;;LION;49;14500;7200;224;56;93;100;8400;;4159;4160;1;13009;28.34;28.34;31,4;BCS1388054;5;12