File: reader/backup_20210408/Batterieverzeichnis_new/001076.txt
Serialnumber ; Date ; Time ; Action ; Date of Manufacture ; Manufacturer ; Battery Name ; Device-Chemistry ; Specification-Info ; Design-Capacity [mAh] ; Design-Voltage [mV] ; Battery Status ; Cycle Count ; SOC [%] ; Relativ SOC[%] ; Desired Voltage [mV]; Desired Current [mA]; Cell Voltage 1 [mV] ; Cell Voltage 2 [mV] ; Max_Error [%] ; Busvoltage[mV] ; Battery Temperature [°C] ; Charger Temperature [°C] ; Batterysystem ; Case ; PLace
001076;10.12.2019;15:29:15;Charge to 30% ;15.02.2018;FEY;;LION;49;14500;7200;224;23;95;99;8400;;4123;4123;1;13030;22.54;24.64;27,1;BCS1388054;7;2
001076;10.12.2019;20:46:56;Stop          ;15.02.2018;FEY;;LION;49;14500;7200;192;24;29;30;8400;3000;3473;3522;1;13030;32.34;36.24;33,5;BCS1388054;7;2
001076;11.12.2019;08:49:12;Fastcharge    ;15.02.2018;FEY;;LION;49;14500;7200;192;24;29;30;8400;3000;3566;3566;1;13030;26.04;27.94;31,9;BCS1388054;7;2
001076;11.12.2019;13:38:42;Stop          ;15.02.2018;FEY;;LION;49;14500;7200;224;24;96;100;8400;;4164;4164;1;13030;29.24;30.04;32,7;BCS1388054;7;2
001076;11.12.2019;15:46:56;Charge to 10% ;15.02.2018;FEY;;LION;49;14500;7200;224;24;98;100;8400;;4155;4155;1;13030;26.74;28.24;31,2;BCS1388054;7;2
001076;11.12.2019;22:51:50;Stop          ;15.02.2018;FEY;;LION;49;14500;7200;192;25;10;10;8400;3000;3338;3339;1;13030;33.14;35.84;33,0;BCS1388054;7;2
001076;12.12.2019;08:45:27;Normalcharge  ;15.02.2018;FEY;;LION;49;14500;7200;192;25;9;9;8400;3000;3360;3361;1;13031;26.24;28.14;31,7;BCS1388054;7;2
001076;12.12.2019;16:41:08;Stop          ;15.02.2018;FEY;;LION;49;14500;7200;224;25;97;100;8400;;4165;4166;1;13030;28.54;29.84;31,6;BCS1388054;7;2
001076;13.12.2019;10:48:13;Charge to 10% ;15.02.2018;FEY;;LION;49;14500;7200;224;25;97;100;8400;;4151;4151;1;13031;26.24;28.24;32,0;BCS1388054;7;2
001076;13.12.2019;13:48:48;Stop          ;15.02.2018;FEY;;LION;49;14500;7200;192;25;60;62;8400;3000;3694;3743;1;13523;33.44;39.24;36,8;BCS1388054;7;2
001076;16.12.2019;07:43:34;Charge to 10% ;15.02.2018;FEY;;LION;49;14500;7200;192;25;62;64;8400;3000;3793;3794;1;13031;22.94;24.54;31,7;BCS1388054;7;6
001076;16.12.2019;11:52:34;Stop          ;15.02.2018;FEY;;LION;49;14500;7200;192;26;10;10;8400;3000;3232;3283;1;13029;31.74;31.84;34,7;BCS1388054;7;6
001076;16.12.2019;14:44:25;Charge to 90% ;15.02.2018;FEY;;LION;49;14500;7200;192;26;10;10;8400;3000;3348;3349;1;13029;28.34;27.24;31,7;BCS1388054;7;6
001076;16.12.2019;20:53:58;Stop          ;15.02.2018;FEY;;LION;49;14500;7200;128;26;86;90;8400;3000;4123;4075;1;13030;30.14;30.24;32,1;BCS1388054;7;6
001076;17.12.2019;08:38:01;Fastcharge    ;15.02.2018;FEY;;LION;49;14500;7200;192;26;86;90;8400;3000;4023;4022;1;13030;25.94;25.94;31,6;BCS1388054;7;6
001076;17.12.2019;10:36:25;Stop          ;15.02.2018;FEY;;LION;49;14500;7200;224;26;96;100;8400;;4161;4161;1;13030;27.14;26.64;31,5;BCS1388054;7;6
001076;17.12.2019;13:38:44;Charge to 10% ;15.02.2018;FEY;;LION;49;14500;7200;224;26;96;100;8400;;4152;4152;1;13030;26.14;25.94;30,8;BCS1388054;7;6
001076;17.12.2019;20:42:03;Stop          ;15.02.2018;FEY;;LION;49;14500;7200;192;27;10;10;8400;3000;3250;3300;1;13029;32.04;31.04;32,6;BCS1388054;7;6
001076;18.12.2019;08:31:43;Fastcharge    ;15.02.2018;FEY;;LION;49;14500;7200;192;27;9;9;8400;3000;3360;3361;1;13030;26.04;25.84;31,6;BCS1388054;7;6
001076;18.12.2019;14:30:48;Stop          ;15.02.2018;FEY;;LION;49;14500;7200;224;27;95;100;8400;;4165;4165;1;13031;28.34;27.14;31,6;BCS1388054;7;6
001076;19.12.2019;08:24:17;Charge to 60% ;15.02.2018;FEY;;LION;49;14500;7200;224;27;96;100;8400;;4150;4150;1;13030;25.94;26.04;31,6;BCS1388054;7;6
001076;19.12.2019;11:28:26;Stop          ;15.02.2018;FEY;;LION;49;14500;7200;192;28;58;60;8400;3000;3681;3730;1;13028;32.14;32.44;35,1;BCS1388054;7;6
001076;19.12.2019;12:16:57;Cycle         ;15.02.2018;FEY;;LION;49;14500;7200;192;28;58;60;8400;3000;3781;3782;1;13030;28.74;27.34;32,7;BCS1388054;7;6
001076;20.12.2019;17:22:28;Stop          ;15.02.2018;FEY;;LION;49;14500;7200;224;29;95;100;8400;;4154;4154;1;13030;26.14;26.14;31,9;BCS1388054;7;6
001076;06.01.2020;06:35:02;Charge to 60% ;15.02.2018;FEY;;LION;49;14500;7200;192;29;94;98;8400;;4123;4123;1;13031;26.04;25.94;31,9;BCS1388054;7;6
001076;06.01.2020;09:29:52;Stop          ;15.02.2018;FEY;;LION;49;14500;7200;192;29;57;60;8400;3000;3754;3753;1;13030;31.34;31.24;34,0;BCS1388054;7;6
001076;06.01.2020;09:50:50;Fastcharge    ;15.02.2018;FEY;;LION;49;14500;7200;192;29;57;60;8400;3000;3776;3777;1;13031;29.84;27.94;32,7;BCS1388054;7;6
001076;06.01.2020;13:05:11;Stop          ;15.02.2018;FEY;;LION;49;14500;7200;224;29;96;100;8400;;4162;4162;1;13031;27.94;26.94;32,4;BCS1388054;7;6