File: reader/backup_20210408/Batterieverzeichnis_new/001011.txt
Serialnumber ; Date ; Time ; Action ; Date of Manufacture ; Manufacturer ; Battery Name ; Device-Chemistry ; Specification-Info ; Design-Capacity [mAh] ; Design-Voltage [mV] ; Battery Status ; Cycle Count ; SOC [%] ; Relativ SOC[%] ; Desired Voltage [mV]; Desired Current [mA]; Cell Voltage 1 [mV] ; Cell Voltage 2 [mV] ; Max_Error [%] ; Busvoltage[mV] ; Battery Temperature [°C] ; Charger Temperature [°C] ; Batterysystem ; Case ; PLace
001011;10.12.2019;15:29:15;Charge to 30% ;28.11.2017;FEY;;LION;49;14500;7200;224;40;91;99;8400;;4120;4119;1;13031;22.34;23.14;27,1;BCS1388054;7;6
001011;10.12.2019;20:46:56;Stop          ;28.11.2017;FEY;;LION;49;14500;7200;192;41;28;30;8400;3000;3558;3557;1;13028;30.84;29.34;33,5;BCS1388054;7;6
001011;11.12.2019;08:49:12;Fastcharge    ;28.11.2017;FEY;;LION;49;14500;7200;192;41;28;30;8400;3000;3565;3564;1;13030;25.64;25.94;31,9;BCS1388054;7;6
001011;11.12.2019;13:38:42;Stop          ;28.11.2017;FEY;;LION;49;14500;7200;224;41;93;100;8400;;4160;4160;1;13030;28.04;27.34;32,7;BCS1388054;7;6
001011;11.12.2019;15:46:56;Charge to 10% ;28.11.2017;FEY;;LION;49;14500;7200;224;41;94;100;8400;;4152;4152;1;13030;26.14;26.04;31,2;BCS1388054;7;6
001011;11.12.2019;22:51:50;Stop          ;28.11.2017;FEY;;LION;49;14500;7200;192;42;10;10;8400;3000;3358;3357;1;13029;31.04;29.14;33,0;BCS1388054;7;6
001011;12.12.2019;08:45:27;Normalcharge  ;28.11.2017;FEY;;LION;49;14500;7200;192;42;9;10;8400;3000;3365;3364;1;13031;25.84;25.94;31,7;BCS1388054;7;6
001011;12.12.2019;16:41:08;Stop          ;28.11.2017;FEY;;LION;49;14500;7200;224;42;93;100;8400;;4158;4158;1;13030;27.64;26.84;31,6;BCS1388054;7;6
001011;13.12.2019;10:48:13;Charge to 10% ;28.11.2017;FEY;;LION;49;14500;7200;224;42;93;100;8400;;4148;4149;1;13031;25.84;26.24;32,0;BCS1388054;7;6
001011;13.12.2019;13:48:48;Stop          ;28.11.2017;FEY;;LION;49;14500;7200;192;42;56;60;8400;3000;3667;3719;1;13534;32.44;33.74;36,8;BCS1388054;7;6
001011;16.12.2019;07:43:34;Charge to 10% ;28.11.2017;FEY;;LION;49;14500;7200;192;42;56;60;8400;3000;3768;3772;1;13024;22.64;24.94;31,7;BCS1388054;7;11
001011;16.12.2019;11:52:34;Stop          ;28.11.2017;FEY;;LION;49;14500;7200;192;43;10;10;8400;3000;3360;3360;1;13023;31.14;30.54;34,7;BCS1388054;7;11
001011;16.12.2019;14:44:25;Charge to 90% ;28.11.2017;FEY;;LION;49;14500;7200;192;43;10;10;8400;3000;3365;3364;1;13023;28.24;27.84;31,7;BCS1388054;7;11
001011;16.12.2019;20:53:58;Stop          ;28.11.2017;FEY;;LION;49;14500;7200;192;43;83;90;8400;3000;4049;4049;1;13024;29.84;28.84;32,1;BCS1388054;7;11
001011;17.12.2019;08:38:02;Fastcharge    ;28.11.2017;FEY;;LION;49;14500;7200;192;43;83;90;8400;3000;4041;4041;1;13024;25.84;26.44;31,6;BCS1388054;7;11
001011;17.12.2019;10:36:25;Stop          ;28.11.2017;FEY;;LION;49;14500;7200;224;43;93;100;8400;;4157;4157;1;13023;27.14;27.34;31,5;BCS1388054;7;11
001011;17.12.2019;13:38:44;Charge to 10% ;28.11.2017;FEY;;LION;49;14500;7200;224;43;93;100;8400;;4150;4150;1;13025;26.14;26.44;30,8;BCS1388054;7;11
001011;17.12.2019;20:42:03;Stop          ;28.11.2017;FEY;;LION;49;14500;7200;192;44;10;10;8400;3000;3360;3360;1;13024;31.74;29.74;32,6;BCS1388054;7;11
001011;18.12.2019;08:31:43;Fastcharge    ;28.11.2017;FEY;;LION;49;14500;7200;192;44;9;10;8400;3000;3368;3367;1;13024;25.94;26.34;31,6;BCS1388054;7;11
001011;18.12.2019;14:30:48;Stop          ;28.11.2017;FEY;;LION;49;14500;7200;224;44;92;100;8400;;4158;4158;1;13025;28.64;27.74;31,6;BCS1388054;7;11
001011;19.12.2019;08:24:17;Charge to 60% ;28.11.2017;FEY;;LION;49;14500;7200;224;44;93;100;8400;;4149;4148;1;13024;25.84;26.54;31,6;BCS1388054;7;11
001011;19.12.2019;11:28:26;Stop          ;28.11.2017;FEY;;LION;49;14500;7200;192;45;56;60;8400;3000;3764;3766;1;13023;32.24;31.34;35,1;BCS1388054;7;11
001011;19.12.2019;12:16:57;Cycle         ;28.11.2017;FEY;;LION;49;14500;7200;192;45;56;60;8400;3000;3773;3775;1;13024;28.94;28.14;32,7;BCS1388054;7;11
001011;20.12.2019;17:22:28;Stop          ;28.11.2017;FEY;;LION;49;14500;7200;224;46;92;100;8400;;4152;4150;1;13024;26.04;26.74;31,9;BCS1388054;7;11
001011;06.01.2020;06:35:02;Charge to 60% ;28.11.2017;FEY;;LION;49;14500;7200;224;46;90;99;8400;;4123;4121;1;13025;25.94;26.54;31,9;BCS1388054;7;11
001011;06.01.2020;09:29:52;Stop          ;28.11.2017;FEY;;LION;49;14500;7200;192;46;55;60;8400;3000;3763;3763;1;13024;31.44;30.34;34,0;BCS1388054;7;11
001011;06.01.2020;09:50:50;Fastcharge    ;28.11.2017;FEY;;LION;49;14500;7200;192;46;55;60;8400;3000;3770;3770;1;13025;29.94;28.74;32,7;BCS1388054;7;11
001011;06.01.2020;13:05:11;Stop          ;28.11.2017;FEY;;LION;49;14500;7200;224;46;92;100;8400;;4159;4159;1;13025;28.34;27.74;32,4;BCS1388054;7;11