File: reader/backup_20210408/Batterieverzeichnis_new/001072.txt
Serialnumber ; Date ; Time ; Action ; Date of Manufacture ; Manufacturer ; Battery Name ; Device-Chemistry ; Specification-Info ; Design-Capacity [mAh] ; Design-Voltage [mV] ; Battery Status ; Cycle Count ; SOC [%] ; Relativ SOC[%] ; Desired Voltage [mV]; Desired Current [mA]; Cell Voltage 1 [mV] ; Cell Voltage 2 [mV] ; Max_Error [%] ; Busvoltage[mV] ; Battery Temperature [°C] ; Charger Temperature [°C] ; Batterysystem ; Case ; PLace
001072;10.12.2019;15:29:15;Charge to 30% ;15.02.2018;FEY;;LION;49;14500;7200;224;23;94;99;8400;;4123;4122;1;13030;22.44;24.64;27,1;BCS1388054;7;7
001072;10.12.2019;20:46:56;Stop          ;15.02.2018;FEY;;LION;49;14500;7200;192;24;29;30;8400;3000;3555;3555;1;13027;32.34;33.04;33,5;BCS1388054;7;7
001072;11.12.2019;08:49:12;Fastcharge    ;15.02.2018;FEY;;LION;49;14500;7200;192;24;29;30;8400;3000;3566;3566;1;13028;26.04;27.64;31,9;BCS1388054;7;7
001072;11.12.2019;13:38:42;Stop          ;15.02.2018;FEY;;LION;49;14500;7200;224;24;95;100;8400;;4166;4166;1;13030;29.14;30.24;32,7;BCS1388054;7;7
001072;11.12.2019;15:46:56;Charge to 10% ;15.02.2018;FEY;;LION;49;14500;7200;224;24;97;100;8400;;4156;4156;1;13029;26.64;27.94;31,2;BCS1388054;7;7
001072;11.12.2019;22:51:50;Stop          ;15.02.2018;FEY;;LION;49;14500;7200;192;25;10;10;8400;3000;3351;3351;1;13030;32.94;32.54;33,0;BCS1388054;7;7
001072;12.12.2019;08:45:27;Normalcharge  ;15.02.2018;FEY;;LION;49;14500;7200;192;25;9;10;8400;3000;3362;3361;1;13030;26.24;27.84;31,7;BCS1388054;7;7
001072;12.12.2019;16:41:08;Stop          ;15.02.2018;FEY;;LION;49;14500;7200;224;25;96;100;8400;;4162;4159;1;13029;28.54;29.24;31,6;BCS1388054;7;7
001072;13.12.2019;10:48:13;Charge to 10% ;15.02.2018;FEY;;LION;49;14500;7200;224;25;96;100;8400;;4150;4148;1;13029;26.24;27.84;32,0;BCS1388054;7;7
001072;13.12.2019;13:48:48;Stop          ;15.02.2018;FEY;;LION;49;14500;7200;192;25;59;61;8400;3000;3688;3736;1;13527;33.54;39.74;36,8;BCS1388054;7;7
001072;16.12.2019;07:43:27;Charge to 10% ;15.02.2018;FEY;;LION;49;14500;7200;192;25;61;63;8400;3000;3789;3788;1;13002;22.54;28.54;31,7;BCS1388054;6;13
001072;16.12.2019;14:43:10;Stop          ;15.02.2018;FEY;;LION;49;14500;7200;192;26;10;10;8400;3000;3360;3359;1;13002;30.24;32.74;31,7;BCS1388054;6;13
001072;16.12.2019;14:44:21;Charge to 90% ;15.02.2018;FEY;;LION;49;14500;7200;192;26;10;10;8400;3000;3360;3359;1;13002;30.24;32.54;31,9;BCS1388054;6;13
001072;16.12.2019;20:54:26;Stop          ;15.02.2018;FEY;;LION;49;14500;7200;192;26;84;90;8400;3000;4030;4027;1;13003;32.14;33.54;32,1;BCS1388054;6;13
001072;17.12.2019;08:37:58;Fastcharge    ;15.02.2018;FEY;;LION;49;14500;7200;192;26;83;88;8400;3000;4023;4020;1;13003;26.54;29.14;31,6;BCS1388054;6;13
001072;17.12.2019;13:38:40;Charge to 10% ;15.02.2018;FEY;;LION;49;14500;7200;224;26;94;100;8400;;4153;4149;1;13004;26.84;29.24;30,8;BCS1388054;6;13
001072;17.12.2019;20:41:41;Stop          ;15.02.2018;FEY;;LION;49;14500;7200;192;27;10;10;8400;3000;3357;3354;1;13002;34.34;35.84;32,6;BCS1388054;6;13
001072;18.12.2019;08:31:34;Fastcharge    ;15.02.2018;FEY;;LION;49;14500;7200;192;27;9;9;8400;3000;3366;3364;1;13003;26.64;29.34;31,6;BCS1388054;6;13
001072;18.12.2019;14:33:31;Stop          ;15.02.2018;FEY;;LION;49;14500;7200;224;27;94;100;8400;;4161;4155;1;13002;30.44;31.54;31,4;BCS1388054;6;13
001072;19.12.2019;08:24:06;Charge to 60% ;15.02.2018;FEY;;LION;49;14500;7200;224;27;96;100;8400;;4151;4145;1;13002;26.64;29.14;31,5;BCS1388054;6;13
001072;19.12.2019;11:34:24;Stop          ;15.02.2018;FEY;;LION;49;14500;7200;192;28;58;60;8400;3000;3774;3769;1;13002;33.94;35.74;33,5;BCS1388054;6;13
001072;19.12.2019;12:16:53;Cycle         ;15.02.2018;FEY;;LION;49;14500;7200;192;28;58;60;8400;3000;3782;3777;1;13003;30.64;31.54;32,7;BCS1388054;6;13
001072;20.12.2019;17:31:05;Stop          ;15.02.2018;FEY;;LION;49;14500;7200;224;29;95;100;8400;;4155;4152;1;13004;26.94;29.24;30,6;BCS1388054;6;13
001072;06.01.2020;06:34:58;Charge to 60% ;15.02.2018;FEY;;LION;49;14500;7200;192;29;93;98;8400;;4124;4122;1;13005;26.84;29.34;31,9;BCS1388054;6;13
001072;06.01.2020;09:30:42;Stop          ;15.02.2018;FEY;;LION;49;14500;7200;192;30;57;60;8400;3000;3762;3761;1;13004;33.44;38.84;33,7;BCS1388054;6;13
001072;06.01.2020;09:50:46;Fastcharge    ;15.02.2018;FEY;;LION;49;14500;7200;192;30;57;60;8400;3000;3775;3775;1;13004;31.84;32.24;32,7;BCS1388054;6;13
001072;06.01.2020;13:06:22;Stop          ;15.02.2018;FEY;;LION;49;14500;7200;224;30;95;100;8400;;4160;4158;1;13003;30.04;31.84;32,1;BCS1388054;6;13