File: reader/backup_20210408/Batterieverzeichnis_new/009590.txt
Serialnumber ; Date ; Time ; Action ; Date of Manufacture ; Manufacturer ; Battery Name ; Device-Chemistry ; Specification-Info ; Design-Capacity [mAh] ; Design-Voltage [mV] ; Battery Status ; Cycle Count ; SOC [%] ; Relativ SOC[%] ; Desired Voltage [mV]; Desired Current [mA]; Cell Voltage 1 [mV] ; Cell Voltage 2 [mV] ; Max_Error [%] ; Busvoltage[mV] ; Battery Temperature [°C] ; Charger Temperature [°C] ; Batterysystem ; Case ; PLace
009590;12.01.2021;04:17:33;Charge to 90% ;04.12.2018;FEY;;LION;49;14500;7200;16576;3;96;96;;;4113;4112;1;13005;22.94;23.34;23,6;BCS1388054;4;15
009590;12.01.2021;04:57:16;Stop          ;04.12.2018;FEY;;LION;49;14500;7200;192;3;91;90;8400;3000;4060;4059;1;13000;26.34;29.34;31,6;BCS1388054;4;15
009590;12.01.2021;05:21:49;Cycle         ;04.12.2018;FEY;;LION;49;14500;7200;192;3;91;90;8400;3000;4063;4062;1;13002;26.74;28.14;30,4;BCS1388054;4;15
009590;13.01.2021;08:19:19;Stop          ;04.12.2018;FEY;;LION;49;14500;7200;224;4;99;100;8400;;4155;4156;1;13001;27.04;28.14;30,7;BCS1388054;4;15
009590;21.02.2021;13:43:32;Normalcharge  ;04.12.2018;FEY;;LION;49;14500;7200;192;5;60;61;8400;3000;3759;3757;1;13003;23.04;25.34;27,5;BCS1388054;2;4
009590;21.02.2021;19:27:00;Stop          ;04.12.2018;FEY;;LION;49;14500;7200;224;5;99;100;8400;;4154;4156;1;13003;26.74;28.24;31,1;BCS1388054;2;4
009590;06.04.2021;08:39:10;Normalcharge  ;04.12.2018;FEY;;LION;49;14500;7200;224;5;98;99;8400;;4128;4129;1;13014;21.44;25.64;28,1;BCS1388054;5;2
009590;06.04.2021;08:39:58;Stop          ;04.12.2018;FEY;;LION;49;14500;7200;224;5;98;99;8400;;4128;4129;1;13014;21.44;26.14;28,4;BCS1388054;5;2