File: reader/backup_20210408/Batterieverzeichnis_new/009553.txt
Serialnumber ; Date ; Time ; Action ; Date of Manufacture ; Manufacturer ; Battery Name ; Device-Chemistry ; Specification-Info ; Design-Capacity [mAh] ; Design-Voltage [mV] ; Battery Status ; Cycle Count ; SOC [%] ; Relativ SOC[%] ; Desired Voltage [mV]; Desired Current [mA]; Cell Voltage 1 [mV] ; Cell Voltage 2 [mV] ; Max_Error [%] ; Busvoltage[mV] ; Battery Temperature [°C] ; Charger Temperature [°C] ; Batterysystem ; Case ; PLace
009553;10.12.2019;15:28:40;Charge to 30% ;04.12.2018;FEY;;LION;49;14500;7200;224;52;92;99;8400;;4132;4132;1;13011;22.94;25.14;27,1;BCS1388054;2;2
009553;10.12.2019;20:48:37;Stop          ;04.12.2018;FEY;;LION;49;14500;7200;192;52;28;30;8400;3000;3563;3563;1;13009;33.64;34.34;33,2;BCS1388054;2;2
009553;11.12.2019;08:48:24;Fastcharge    ;04.12.2018;FEY;;LION;49;14500;7200;192;52;28;30;8400;3000;3570;3570;1;13010;26.44;28.94;31,9;BCS1388054;2;2
009553;11.12.2019;13:39:47;Stop          ;04.12.2018;FEY;;LION;49;14500;7200;224;52;94;100;8400;;4161;4161;1;13010;30.44;31.44;32,5;BCS1388054;2;2
009553;11.12.2019;15:46:18;Charge to 10% ;04.12.2018;FEY;;LION;49;14500;7200;224;52;95;99;8400;;4153;4153;1;13010;27.34;29.34;31,4;BCS1388054;2;2
009553;11.12.2019;22:49:04;Stop          ;04.12.2018;FEY;;LION;49;14500;7200;192;54;10;10;8400;3000;3352;3353;1;13009;34.54;34.94;33,6;BCS1388054;2;2
009553;12.12.2019;08:44:52;Normalcharge  ;04.12.2018;FEY;;LION;49;14500;7200;192;54;9;10;8400;3000;3362;3363;1;13010;26.64;29.14;31,9;BCS1388054;2;2
009553;12.12.2019;16:40:06;Stop          ;04.12.2018;FEY;;LION;49;14500;7200;224;54;95;100;8400;;4160;4160;1;13009;29.44;30.94;31,7;BCS1388054;2;2
009553;13.12.2019;10:47:50;Charge to 10% ;04.12.2018;FEY;;LION;49;14500;7200;224;54;95;100;8400;;4148;4148;1;13009;26.64;29.24;32,0;BCS1388054;2;2
009553;13.12.2019;15:42:08;Cycle         ;04.12.2018;FEY;;LION;49;14500;7200;192;54;34;36;8400;3000;3499;3550;1;13563;33.44;39.94;34,6;BCS1388054;2;2
009553;13.12.2019;15:42:08;Stop          ;04.12.2018;FEY;;LION;49;14500;7200;192;54;34;36;8400;3000;3499;3550;1;13563;33.44;39.94;34,6;BCS1388054;2;2
009553;14.12.2019;22:48:51;Stop          ;04.12.2018;FEY;;LION;49;14500;7200;224;56;92;99;8400;;4151;4150;1;13011;26.74;29.14;32,0;BCS1388054;2;2
009553;16.12.2019;07:43:06;Charge to 10% ;04.12.2018;FEY;;LION;49;14500;7200;224;56;93;100;8400;;4145;4144;1;13010;26.34;28.74;31,9;BCS1388054;2;2
009553;16.12.2019;14:37:54;Stop          ;04.12.2018;FEY;;LION;49;14500;7200;192;57;10;10;8400;3000;3366;3366;1;13011;33.04;33.14;32,4;BCS1388054;2;2
009553;16.12.2019;14:44:03;Charge to 90% ;04.12.2018;FEY;;LION;49;14500;7200;192;57;10;10;8400;3000;3367;3368;1;13011;32.64;32.34;31,9;BCS1388054;2;2
009553;16.12.2019;20:51:09;Stop          ;04.12.2018;FEY;;LION;49;14500;7200;192;57;84;90;8400;3000;4055;4055;1;13012;31.84;32.24;31,6;BCS1388054;2;2
009553;17.12.2019;08:37:40;Fastcharge    ;04.12.2018;FEY;;LION;49;14500;7200;192;57;84;90;8400;3000;4046;4046;1;13010;26.44;28.84;31,6;BCS1388054;2;2
009553;17.12.2019;10:30:36;Stop          ;04.12.2018;FEY;;LION;49;14500;7200;224;57;94;100;8400;;4162;4161;1;13011;27.94;30.54;31,5;BCS1388054;2;2
009553;17.12.2019;13:38:22;Charge to 10% ;04.12.2018;FEY;;LION;49;14500;7200;224;57;94;100;8400;;4149;4148;1;13011;26.74;28.94;30,8;BCS1388054;2;2
009553;17.12.2019;20:36:00;Stop          ;04.12.2018;FEY;;LION;49;14500;7200;192;58;10;10;8400;3000;3365;3365;1;13010;34.24;34.54;33,6;BCS1388054;2;2
009553;18.12.2019;08:31:17;Fastcharge    ;04.12.2018;FEY;;LION;49;14500;7200;192;58;10;10;8400;3000;3373;3373;1;13011;26.54;29.04;31,6;BCS1388054;2;2
009553;18.12.2019;14:28:27;Stop          ;04.12.2018;FEY;;LION;49;14500;7200;224;58;94;100;8400;;4161;4160;1;13012;30.44;31.34;32,0;BCS1388054;2;2
009553;19.12.2019;08:23:50;Charge to 60% ;04.12.2018;FEY;;LION;49;14500;7200;224;58;95;100;8400;;4149;4148;1;13010;26.44;28.84;31,5;BCS1388054;2;2
009553;19.12.2019;11:32:11;Stop          ;04.12.2018;FEY;;LION;49;14500;7200;192;58;57;60;8400;3000;3770;3768;1;13009;34.14;35.04;34,0;BCS1388054;2;2
009553;19.12.2019;12:16:37;Cycle         ;04.12.2018;FEY;;LION;49;14500;7200;192;58;57;60;8400;3000;3778;3777;1;13011;30.94;31.34;32,7;BCS1388054;2;2
009553;20.12.2019;17:35:47;Stop          ;04.12.2018;FEY;;LION;49;14500;7200;224;60;93;99;8400;;4151;4152;1;13011;26.74;28.94;31,1;BCS1388054;2;2
009553;06.01.2020;06:34:42;Charge to 60% ;04.12.2018;FEY;;LION;49;14500;7200;224;60;92;99;8400;;4122;4122;1;13012;26.44;28.84;31,9;BCS1388054;2;2
009553;06.01.2020;09:32:11;Stop          ;04.12.2018;FEY;;LION;49;14500;7200;192;60;56;60;8400;3000;3770;3770;1;13012;33.34;34.24;33,2;BCS1388054;2;2
009553;06.01.2020;09:50:30;Fastcharge    ;04.12.2018;FEY;;LION;49;14500;7200;192;60;56;60;8400;3000;3777;3776;1;13012;32.04;31.94;32,7;BCS1388054;2;2
009553;06.01.2020;13:08:34;Stop          ;04.12.2018;FEY;;LION;49;14500;7200;224;60;94;100;8400;;4160;4160;1;13012;29.84;30.74;31,6;BCS1388054;2;2