File: reader/backup_20210408/Batterieverzeichnis_new/009599.txt
Serialnumber ; Date ; Time ; Action ; Date of Manufacture ; Manufacturer ; Battery Name ; Device-Chemistry ; Specification-Info ; Design-Capacity [mAh] ; Design-Voltage [mV] ; Battery Status ; Cycle Count ; SOC [%] ; Relativ SOC[%] ; Desired Voltage [mV]; Desired Current [mA]; Cell Voltage 1 [mV] ; Cell Voltage 2 [mV] ; Max_Error [%] ; Busvoltage[mV] ; Battery Temperature [°C] ; Charger Temperature [°C] ; Batterysystem ; Case ; PLace
009599;07.12.2020;04:14:28;Cycle         ;04.12.2018;FEY;;LION;49;14500;7200;192;2;95;98;8400;;4137;4139;1;13003;25.64;27.24;30,3;BCS1388054;4;17
009599;08.12.2020;16:19:56;Stop          ;04.12.2018;FEY;;LION;49;14500;7200;192;2;95;98;8400;;4135;4137;1;13003;27.64;28.74;31,9;BCS1388054;4;17
009599;12.01.2021;04:17:33;Charge to 90% ;04.12.2018;FEY;;LION;49;14500;7200;192;2;94;97;8400;;4122;4124;1;13021;23.04;24.24;23,6;BCS1388054;4;16
009599;12.01.2021;04:57:16;Stop          ;04.12.2018;FEY;;LION;49;14500;7200;192;2;88;90;8400;3000;4061;4062;1;13016;26.54;29.44;31,6;BCS1388054;4;16
009599;12.01.2021;05:21:49;Cycle         ;04.12.2018;FEY;;LION;49;14500;7200;192;2;88;90;8400;3000;4064;4065;1;13016;26.84;28.34;30,4;BCS1388054;4;16
009599;13.01.2021;08:19:19;Stop          ;04.12.2018;FEY;;LION;49;14500;7200;224;3;97;100;8400;;4155;4157;1;13017;27.14;28.44;30,7;BCS1388054;4;16
009599;21.02.2021;13:43:32;Normalcharge  ;04.12.2018;FEY;;LION;49;14500;7200;192;4;57;59;8400;3000;3733;3738;1;13002;23.24;25.94;27,5;BCS1388054;2;2
009599;21.02.2021;19:27:00;Stop          ;04.12.2018;FEY;;LION;49;14500;7200;224;4;97;100;8400;;4154;4155;1;13001;26.94;29.04;31,1;BCS1388054;2;2
009599;06.04.2021;08:39:10;Normalcharge  ;04.12.2018;FEY;;LION;49;14500;7200;224;4;95;99;8400;;4129;4129;1;13006;21.44;25.04;28,1;BCS1388054;5;14
009599;06.04.2021;08:39:58;Stop          ;04.12.2018;FEY;;LION;49;14500;7200;224;4;95;99;8400;;4129;4129;1;13006;21.44;25.34;28,4;BCS1388054;5;14