File: reader/backup_20210408/Batterieverzeichnis_new/009656.txt
Serialnumber ; Date ; Time ; Action ; Date of Manufacture ; Manufacturer ; Battery Name ; Device-Chemistry ; Specification-Info ; Design-Capacity [mAh] ; Design-Voltage [mV] ; Battery Status ; Cycle Count ; SOC [%] ; Relativ SOC[%] ; Desired Voltage [mV]; Desired Current [mA]; Cell Voltage 1 [mV] ; Cell Voltage 2 [mV] ; Max_Error [%] ; Busvoltage[mV] ; Battery Temperature [°C] ; Charger Temperature [°C] ; Batterysystem ; Case ; PLace
009656;12.01.2021;04:17:22;Charge to 90% ;03.12.2018;FEY;;LION;49;14500;7200;16576;2;96;98;;;4133;4133;1;12992;22.54;23.94;23,5;BCS1388054;2;18
009656;12.01.2021;04:54:21;Stop          ;03.12.2018;FEY;;LION;49;14500;7200;192;3;89;90;8400;3000;4047;4046;1;12986;27.34;33.54;31,9;BCS1388054;2;18
009656;12.01.2021;05:21:40;Cycle         ;03.12.2018;FEY;;LION;49;14500;7200;192;3;89;90;8400;3000;4058;4058;1;12986;26.74;28.54;30,6;BCS1388054;2;18
009656;13.01.2021;08:20:19;Stop          ;03.12.2018;FEY;;LION;49;14500;7200;224;4;96;100;8400;;4156;4154;1;12985;26.14;28.34;30,8;BCS1388054;2;18
009656;03.03.2021;08:17:17;Normalcharge  ;03.12.2018;FEY;;LION;49;14500;7200;192;4;91;94;8400;3000;4081;4080;1;12994;22.54;23.74;23,5;BCS1388054;2;18
009656;04.03.2021;07:53:46;Stop          ;03.12.2018;FEY;;LION;49;14500;7200;224;4;97;100;8400;;4148;4147;1;12986;25.74;27.94;31,6;BCS1388054;2;18
009656;04.04.2021;11:49:55;Normalcharge  ;03.12.2018;FEY;;LION;49;14500;7200;192;4;52;54;8400;3000;3689;3689;1;13037;24.54;24.94;27,5;BCS1388054;7;14
009656;04.04.2021;11:51:17;Stop          ;03.12.2018;FEY;;LION;49;14500;7200;128;4;52;54;8400;3000;3777;3730;1;12762;24.64;28.54;28,4;BCS1388054;7;14
009656;05.04.2021;09:38:11;Charge to 60% ;03.12.2018;FEY;;LION;49;14500;7200;192;4;52;55;8400;3000;3692;3691;1;12994;24.44;26.74;26,3;BCS1388054;4;2
009656;05.04.2021;10:13:52;Stop          ;03.12.2018;FEY;;LION;49;14500;7200;192;4;57;60;8400;3000;3754;3753;1;12991;26.64;30.44;32,1;BCS1388054;4;2