File: reader/backup_20210408/Batterieverzeichnis_new/009654.txt
Serialnumber ; Date ; Time ; Action ; Date of Manufacture ; Manufacturer ; Battery Name ; Device-Chemistry ; Specification-Info ; Design-Capacity [mAh] ; Design-Voltage [mV] ; Battery Status ; Cycle Count ; SOC [%] ; Relativ SOC[%] ; Desired Voltage [mV]; Desired Current [mA]; Cell Voltage 1 [mV] ; Cell Voltage 2 [mV] ; Max_Error [%] ; Busvoltage[mV] ; Battery Temperature [°C] ; Charger Temperature [°C] ; Batterysystem ; Case ; PLace
009654;07.12.2020;04:14:17;Cycle         ;03.12.2018;FEY;;LION;49;14500;7200;224;2;99;99;8400;;4154;4156;1;12998;25.74;28.24;30,3;BCS1388054;1;14
009654;08.12.2020;16:19:38;Stop          ;03.12.2018;FEY;;LION;49;14500;7200;224;3;97;100;8400;;4152;4154;1;12999;27.64;29.64;31,9;BCS1388054;1;14
009654;03.03.2021;08:17:29;Normalcharge  ;03.12.2018;FEY;;LION;49;14500;7200;192;3;89;91;8400;3000;4053;4054;1;13014;23.24;23.44;23,5;BCS1388054;4;1
009654;03.03.2021;10:32:46;Stop          ;03.12.2018;FEY;;LION;49;14500;7200;224;3;98;100;8400;;4155;4157;1;13009;28.24;29.94;32,0;BCS1388054;4;1
009654;04.04.2021;11:50:22;Normalcharge  ;03.12.2018;FEY;;LION;49;14500;7200;192;4;54;56;8400;3000;3704;3704;1;12996;25.04;26.04;27,9;BCS1388054;4;5
009654;04.04.2021;11:51:36;Stop          ;03.12.2018;FEY;;LION;49;14500;7200;128;4;54;56;8400;3000;3791;3746;1;12706;25.04;28.44;28,6;BCS1388054;4;5
009654;05.04.2021;09:37:37;Charge to 60% ;03.12.2018;FEY;;LION;49;14500;7200;192;4;54;56;8400;3000;3706;3707;1;13004;25.24;25.64;26,0;BCS1388054;1;17
009654;05.04.2021;10:01:53;Stop          ;03.12.2018;FEY;;LION;49;14500;7200;192;4;58;60;8400;3000;3767;3767;1;13000;26.94;28.84;31,2;BCS1388054;1;17