File: reader/backup_20210408/Batterieverzeichnis_new/009602.txt
Serialnumber ; Date ; Time ; Action ; Date of Manufacture ; Manufacturer ; Battery Name ; Device-Chemistry ; Specification-Info ; Design-Capacity [mAh] ; Design-Voltage [mV] ; Battery Status ; Cycle Count ; SOC [%] ; Relativ SOC[%] ; Desired Voltage [mV]; Desired Current [mA]; Cell Voltage 1 [mV] ; Cell Voltage 2 [mV] ; Max_Error [%] ; Busvoltage[mV] ; Battery Temperature [°C] ; Charger Temperature [°C] ; Batterysystem ; Case ; PLace
009602;12.01.2021;04:17:22;Charge to 90% ;04.12.2018;FEY;;LION;49;14500;7200;16576;4;97;98;;;4135;4132;1;13006;23.34;24.04;23,5;BCS1388054;2;17
009602;12.01.2021;04:54:21;Stop          ;04.12.2018;FEY;;LION;49;14500;7200;192;4;90;90;8400;3000;4051;4050;1;12999;27.14;32.24;31,9;BCS1388054;2;17
009602;12.01.2021;05:21:40;Cycle         ;04.12.2018;FEY;;LION;49;14500;7200;192;4;90;90;8400;3000;4062;4061;1;13001;27.44;28.74;30,6;BCS1388054;2;17
009602;13.01.2021;08:20:19;Stop          ;04.12.2018;FEY;;LION;49;14500;7200;224;5;97;100;8400;;4155;4155;1;13000;27.14;28.54;30,8;BCS1388054;2;17
009602;21.02.2021;13:43:49;Normalcharge  ;04.12.2018;FEY;;LION;49;14500;7200;224;5;96;99;8400;;4131;4131;1;13006;23.14;23.54;27,7;BCS1388054;3;12
009602;21.02.2021;20:44:52;Stop           ;04.12.2018;FEY;;LION;49;14500;7200;224;5;96;99;8400;;4132;4132;1;13002;26.64;27.04;31,2;BCS1388054;3;12
009602;06.04.2021;08:39:16;Normalcharge  ;04.12.2018;FEY;;LION;49;14500;7200;192;5;95;98;8400;;4116;4116;1;13011;21.44;25.84;28,1;BCS1388054;6;3
009602;06.04.2021;08:40:03;Stop          ;04.12.2018;FEY;;LION;49;14500;7200;192;5;95;98;8400;;4116;4116;1;12991;21.54;26.14;28,5;BCS1388054;6;3