File: reader/backup_20210408/Batterieverzeichnis_new/009651.txt
Serialnumber ; Date ; Time ; Action ; Date of Manufacture ; Manufacturer ; Battery Name ; Device-Chemistry ; Specification-Info ; Design-Capacity [mAh] ; Design-Voltage [mV] ; Battery Status ; Cycle Count ; SOC [%] ; Relativ SOC[%] ; Desired Voltage [mV]; Desired Current [mA]; Cell Voltage 1 [mV] ; Cell Voltage 2 [mV] ; Max_Error [%] ; Busvoltage[mV] ; Battery Temperature [°C] ; Charger Temperature [°C] ; Batterysystem ; Case ; PLace
009651;07.12.2020;04:14:25;Cycle          ;04.12.2018;FEY;;LION;49;14500;7200;16576;2;97;98;;;4147;4146;1;12998;25.94;26.04;30,3;BCS1388054;3;11
009651;08.12.2020;16:19:50;Stop           ;04.12.2018;FEY;;LION;49;14500;7200;16576;2;98;98;;;4144;4143;1;12998;28.04;27.64;31,9;BCS1388054;3;11
009651;12.01.2021;04:17:47;Charge to 90% ;04.12.2018;FEY;;LION;49;14500;7200;16576;2;96;97;;;4129;4129;1;13034;23.24;24.04;23,8;BCS1388054;7;5
009651;12.01.2021;04:57:19;Stop          ;04.12.2018;FEY;;LION;49;14500;7200;192;2;90;90;8400;3000;4061;4060;1;13029;26.84;28.44;31,5;BCS1388054;7;5
009651;12.01.2021;05:22:01;Cycle         ;04.12.2018;FEY;;LION;49;14500;7200;192;2;90;90;8400;3000;4065;4065;1;13030;26.84;27.24;30,4;BCS1388054;7;5
009651;13.01.2021;08:19:29;Stop          ;04.12.2018;FEY;;LION;49;14500;7200;224;4;97;100;8400;;4154;4153;1;13030;26.54;27.34;30,7;BCS1388054;7;5
009651;03.03.2021;08:17:46;Normalcharge  ;04.12.2018;FEY;;LION;49;14500;7200;192;4;62;64;8400;3000;3786;3787;1;13031;23.34;22.94;23,6;BCS1388054;7;6
009651;03.03.2021;10:54:05;Stop          ;04.12.2018;FEY;;LION;49;14500;7200;128;4;93;97;8400;3000;4181;4143;1;12703;29.64;29.74;31,4;BCS1388054;7;6
009651;03.03.2021;10:55:49;Normalcharge  ;04.12.2018;FEY;;LION;49;14500;7200;192;4;94;97;8400;3000;4106;4105;1;13023;29.64;28.14;30,6;BCS1388054;7;6
009651;03.03.2021;17:03:24;Stop          ;04.12.2018;FEY;;LION;49;14500;7200;224;4;97;100;8400;;4151;4149;1;13024;26.24;26.14;31,4;BCS1388054;7;6
009651;04.04.2021;11:49:55;Normalcharge  ;04.12.2018;FEY;;LION;49;14500;7200;192;5;53;55;8400;3000;3691;3692;1;13021;25.14;26.04;27,5;BCS1388054;7;10
009651;04.04.2021;11:51:17;Stop          ;04.12.2018;FEY;;LION;49;14500;7200;128;5;53;55;8400;3000;3780;3732;1;12728;25.14;29.14;28,4;BCS1388054;7;10
009651;05.04.2021;09:37:46;Charge to 60% ;04.12.2018;FEY;;LION;49;14500;7200;192;5;53;55;8400;3000;3694;3694;1;12993;25.14;26.14;26,1;BCS1388054;2;15
009651;05.04.2021;10:03:48;Stop          ;04.12.2018;FEY;;LION;49;14500;7200;192;5;57;60;8400;3000;3755;3756;1;12989;27.24;31.54;31,4;BCS1388054;2;15