File: reader/backup_20210408/Batterieverzeichnis_new/009765.txt
Serialnumber ; Date ; Time ; Action ; Date of Manufacture ; Manufacturer ; Battery Name ; Device-Chemistry ; Specification-Info ; Design-Capacity [mAh] ; Design-Voltage [mV] ; Battery Status ; Cycle Count ; SOC [%] ; Relativ SOC[%] ; Desired Voltage [mV]; Desired Current [mA]; Cell Voltage 1 [mV] ; Cell Voltage 2 [mV] ; Max_Error [%] ; Busvoltage[mV] ; Battery Temperature [°C] ; Charger Temperature [°C] ; Batterysystem ; Case ; PLace
009765;07.12.2020;04:14:32;Cycle         ;04.12.2018;FEY;;LION;49;14500;7200;16576;3;97;98;;;4133;4132;1;13011;25.84;27.14;30,3;BCS1388054;5;17
009765;08.12.2020;16:20:01;Stop          ;04.12.2018;FEY;;LION;49;14500;7200;16576;3;97;98;;;4131;4130;1;13011;27.94;28.74;31,7;BCS1388054;5;17
009765;07.02.2021;08:46:54;Normalcharge  ;04.12.2018;FEY;;LION;49;14500;7200;16576;3;94;95;;;4095;4094;1;13002;23.84;25.04;29,2;BCS1388054;3;12
009765;07.02.2021;11:52:16;Stop           ;04.12.2018;FEY;;LION;49;14500;7200;16576;3;94;95;;;4095;4094;1;13001;26.04;26.14;29,7;BCS1388054;3;12
009765;03.03.2021;08:17:40;Normalcharge  ;04.12.2018;FEY;;LION;49;14500;7200;192;3;71;72;8400;3000;3873;3872;1;13005;23.34;22.74;23,6;BCS1388054;6;5
009765;03.03.2021;11:56:52;Stop          ;04.12.2018;FEY;;LION;49;14500;7200;224;3;99;100;8400;;4158;4157;1;12998;28.04;27.74;31,7;BCS1388054;6;5
009765;06.04.2021;08:38:46;Normalcharge  ;04.12.2018;FEY;;LION;49;14500;7200;224;3;97;99;8400;;4132;4132;1;13018;20.84;25.34;28,1;BCS1388054;2;9
009765;06.04.2021;08:39:36;Stop          ;04.12.2018;FEY;;LION;49;14500;7200;224;3;97;99;8400;;4133;4132;1;13015;20.94;25.54;28,2;BCS1388054;2;9