File: reader/backup_20210408/Batterieverzeichnis_new/009759.txt
Serialnumber ; Date ; Time ; Action ; Date of Manufacture ; Manufacturer ; Battery Name ; Device-Chemistry ; Specification-Info ; Design-Capacity [mAh] ; Design-Voltage [mV] ; Battery Status ; Cycle Count ; SOC [%] ; Relativ SOC[%] ; Desired Voltage [mV]; Desired Current [mA]; Cell Voltage 1 [mV] ; Cell Voltage 2 [mV] ; Max_Error [%] ; Busvoltage[mV] ; Battery Temperature [°C] ; Charger Temperature [°C] ; Batterysystem ; Case ; PLace
009759;30.11.2020;09:42:55;Stop          ;04.12.2018;FEY;;LION;49;14500;7200;16576;3;98;98;;;4133;4133;1;13032;27.64;28.74;31,7;BCS1388054;7;14
009759;12.01.2021;04:16:00;Charge to 90% ;04.12.2018;FEY;;LION;49;14500;7200;16576;3;96;97;;;4117;4117;1;13013;23.04;21.44;23,0;BCS1388054;1;7
009759;12.01.2021;04:16:03;Stop          ;04.12.2018;FEY;;LION;49;14500;7200;16576;3;96;97;;;4117;4117;1;13013;23.04;22.54;23,0;BCS1388054;1;7
009759;12.01.2021;04:17:15;Charge to 90% ;04.12.2018;FEY;;LION;49;14500;7200;16576;3;96;97;;;4117;4117;1;13011;23.04;23.24;23,5;BCS1388054;1;7
009759;12.01.2021;04:55:18;Stop          ;04.12.2018;FEY;;LION;49;14500;7200;192;3;90;90;8400;3000;4051;4050;1;13006;26.54;29.94;31,7;BCS1388054;1;7
009759;12.01.2021;05:21:33;Cycle         ;04.12.2018;FEY;;LION;49;14500;7200;192;3;90;90;8400;3000;4056;4055;1;13007;26.74;27.84;30,6;BCS1388054;1;7
009759;13.01.2021;08:18:34;Stop          ;04.12.2018;FEY;;LION;49;14500;7200;224;4;97;100;8400;;4155;4155;1;13007;26.84;27.74;30,7;BCS1388054;1;7
009759;21.02.2021;13:43:19;Normalcharge  ;04.12.2018;FEY;;LION;49;14500;7200;192;5;62;64;8400;3000;3785;3785;1;13001;23.64;25.04;27,5;BCS1388054;1;17
009759;22.02.2021;17:08:49;Stop          ;04.12.2018;FEY;;LION;49;14500;7200;224;5;98;100;8400;;4148;4149;1;13002;25.94;26.94;30,0;BCS1388054;1;17
009759;06.04.2021;08:38:50;Normalcharge  ;04.12.2018;FEY;;LION;49;14500;7200;224;5;96;99;8400;;4128;4128;1;13010;20.94;25.04;28,1;BCS1388054;3;5
009759;06.04.2021;08:39:42;Stop           ;04.12.2018;FEY;;LION;49;14500;7200;224;5;96;99;8400;;4128;4128;1;13008;21.04;25.24;28,2;BCS1388054;3;5