File: reader/backup_20210408/Batterieverzeichnis_new/009712.txt
Serialnumber ; Date ; Time ; Action ; Date of Manufacture ; Manufacturer ; Battery Name ; Device-Chemistry ; Specification-Info ; Design-Capacity [mAh] ; Design-Voltage [mV] ; Battery Status ; Cycle Count ; SOC [%] ; Relativ SOC[%] ; Desired Voltage [mV]; Desired Current [mA]; Cell Voltage 1 [mV] ; Cell Voltage 2 [mV] ; Max_Error [%] ; Busvoltage[mV] ; Battery Temperature [°C] ; Charger Temperature [°C] ; Batterysystem ; Case ; PLace
009712;29.11.2020;04:25:09;Cycle         ;04.12.2018;FEY;;LION;49;14500;7200;192;4;68;69;8400;3000;3845;3846;1;12995;25.14;25.64;25,6;BCS1388054;1;2
009712;12.01.2021;04:16:00;Charge to 90% ;04.12.2018;FEY;;LION;49;14500;7200;224;5;95;99;8400;;4128;4129;1;13004;22.94;17.04;23,0;BCS1388054;1;15
009712;12.01.2021;04:16:03;Stop          ;04.12.2018;FEY;;LION;49;14500;7200;224;5;95;99;8400;;4128;4129;1;13005;22.94;23.84;23,0;BCS1388054;1;15
009712;12.01.2021;04:17:15;Charge to 90% ;04.12.2018;FEY;;LION;49;14500;7200;224;5;95;99;8400;;4128;4128;1;13003;23.04;24.64;23,5;BCS1388054;1;15
009712;12.01.2021;04:55:18;Stop          ;04.12.2018;FEY;;LION;49;14500;7200;192;5;83;90;8400;3000;4028;4029;1;12994;26.74;36.74;31,7;BCS1388054;1;15
009712;12.01.2021;05:21:33;Cycle         ;04.12.2018;FEY;;LION;49;14500;7200;192;5;83;90;8400;3000;4050;4051;1;12996;26.74;29.64;30,6;BCS1388054;1;15
009712;13.01.2021;08:18:34;Stop          ;04.12.2018;FEY;;LION;49;14500;7200;224;7;95;100;8400;;4155;4155;1;12995;26.64;29.44;30,7;BCS1388054;1;15
009712;21.02.2021;13:43:19;Normalcharge  ;04.12.2018;FEY;;LION;49;14500;7200;192;7;54;57;8400;3000;3720;3720;1;13004;23.74;24.64;27,5;BCS1388054;1;13
009712;22.02.2021;17:08:49;Stop          ;04.12.2018;FEY;;LION;49;14500;7200;224;7;94;100;8400;;4148;4147;1;13004;26.14;26.74;30,0;BCS1388054;1;13
009712;06.04.2021;08:38:50;Normalcharge  ;04.12.2018;FEY;;LION;49;14500;7200;224;7;92;99;8400;;4128;4127;1;13008;20.74;24.44;28,1;BCS1388054;3;4
009712;06.04.2021;08:39:42;Stop           ;04.12.2018;FEY;;LION;49;14500;7200;224;7;92;99;8400;;4128;4127;1;13007;20.84;24.84;28,2;BCS1388054;3;4