File: reader/backup_20210408/Batterieverzeichnis_new/009850.txt
Serialnumber ; Date ; Time ; Action ; Date of Manufacture ; Manufacturer ; Battery Name ; Device-Chemistry ; Specification-Info ; Design-Capacity [mAh] ; Design-Voltage [mV] ; Battery Status ; Cycle Count ; SOC [%] ; Relativ SOC[%] ; Desired Voltage [mV]; Desired Current [mA]; Cell Voltage 1 [mV] ; Cell Voltage 2 [mV] ; Max_Error [%] ; Busvoltage[mV] ; Battery Temperature [°C] ; Charger Temperature [°C] ; Batterysystem ; Case ; PLace
009850;12.01.2021;04:17:28;Ladung auf 90% ;04.12.2018;FEY;;LION;49;14500;7200;192;2;95;96;8400;;4108;4107;1;13004;22.94;23.04;23,6;BCS1388054;3;6
009850;12.01.2021;04:57:30;Stop           ;04.12.2018;FEY;;LION;49;14500;7200;192;2;90;90;8400;3000;4053;4051;1;12999;27.14;28.24;31,5;BCS1388054;3;6
009850;12.01.2021;05:21:45;Cycle          ;04.12.2018;FEY;;LION;49;14500;7200;192;2;90;90;8400;3000;4055;4054;1;13000;27.14;26.74;30,4;BCS1388054;3;6
009850;13.01.2021;08:23:25;Stop           ;04.12.2018;FEY;;LION;49;14500;7200;224;4;98;100;8400;;4155;4156;1;12999;26.64;27.04;31,4;BCS1388054;3;6
009850;21.02.2021;13:43:49;Normalcharge  ;04.12.2018;FEY;;LION;49;14500;7200;224;4;96;99;8400;;4129;4130;1;13011;22.74;23.14;27,7;BCS1388054;3;9
009850;21.02.2021;20:44:52;Stop           ;04.12.2018;FEY;;LION;49;14500;7200;224;4;97;99;8400;;4130;4130;1;13005;26.64;27.64;31,2;BCS1388054;3;9
009850;06.04.2021;08:39:10;Normalcharge  ;04.12.2018;FEY;;LION;49;14500;7200;192;4;95;98;8400;;4113;4114;1;13018;21.64;25.44;28,1;BCS1388054;5;18
009850;06.04.2021;08:39:59;Stop          ;04.12.2018;FEY;;LION;49;14500;7200;192;4;95;98;8400;;4113;4114;1;13016;21.84;25.54;28,4;BCS1388054;5;18