File: V2/reader/Batterieverzeichnis_new/001098.txt
Serialnumber ; Date ; Time ; Action ; Date of Manufacture ; Manufacturer ; Battery Name ; Device-Chemistry ; Specification-Info ; Design-Capacity [mAh] ; Design-Voltage [mV] ; Battery Status ; Cycle Count ; SOC [%] ; Relativ SOC[%] ; Desired Voltage [mV]; Desired Current [mA]; Cell Voltage 1 [mV] ; Cell Voltage 2 [mV] ; Max_Error [%] ; Busvoltage[mV] ; Battery Temperature [°C] ; Charger Temperature [°C] ; Batterysystem ; Case ; PLace
001098;10.12.2019;15:29:15;Charge to 30% ;15.02.2018;FEY;;LION;49;14500;7200;224;23;94;99;8400;;4123;4123;1;13027;22.74;25.04;27,1;BCS1388054;7;17
001098;10.12.2019;20:46:56;Stop          ;15.02.2018;FEY;;LION;49;14500;7200;192;24;29;30;8400;3000;3556;3554;1;13024;32.94;33.24;33,5;BCS1388054;7;17
001098;11.12.2019;08:49:12;Fastcharge    ;15.02.2018;FEY;;LION;49;14500;7200;192;24;29;30;8400;3000;3566;3565;1;13025;26.14;27.74;31,9;BCS1388054;7;17
001098;11.12.2019;13:38:42;Stop          ;15.02.2018;FEY;;LION;49;14500;7200;224;24;95;100;8400;;4163;4163;1;13026;29.64;30.14;32,7;BCS1388054;7;17
001098;11.12.2019;15:46:56;Charge to 10% ;15.02.2018;FEY;;LION;49;14500;7200;224;24;97;100;8400;;4155;4156;1;13024;26.94;28.04;31,2;BCS1388054;7;17
001098;11.12.2019;22:51:50;Stop          ;15.02.2018;FEY;;LION;49;14500;7200;192;25;10;10;8400;3000;3352;3352;1;13024;33.64;32.54;33,0;BCS1388054;7;17
001098;12.12.2019;08:45:27;Normalcharge  ;15.02.2018;FEY;;LION;49;14500;7200;192;25;9;10;8400;3000;3361;3362;1;13025;26.34;27.94;31,7;BCS1388054;7;17
001098;12.12.2019;16:41:08;Stop          ;15.02.2018;FEY;;LION;49;14500;7200;224;25;96;100;8400;;4161;4161;1;13025;28.84;29.24;31,6;BCS1388054;7;17
001098;13.12.2019;10:48:13;Charge to 10% ;15.02.2018;FEY;;LION;49;14500;7200;224;25;96;100;8400;;4150;4150;1;13025;26.34;28.04;32,0;BCS1388054;7;17
001098;13.12.2019;13:48:48;Stop          ;15.02.2018;FEY;;LION;49;14500;7200;192;26;59;61;8400;3000;3687;3736;1;13540;34.04;41.04;36,8;BCS1388054;7;17
001098;16.12.2019;07:43:34;Charge to 10% ;15.02.2018;FEY;;LION;49;14500;7200;192;26;61;63;8400;3000;3788;3788;1;13024;23.04;26.74;31,7;BCS1388054;7;17
001098;16.12.2019;11:52:34;Stop          ;15.02.2018;FEY;;LION;49;14500;7200;192;26;10;10;8400;3000;3340;3340;1;13024;33.04;32.64;34,7;BCS1388054;7;17
001098;16.12.2019;14:44:25;Charge to 90% ;15.02.2018;FEY;;LION;49;14500;7200;192;26;10;10;8400;3000;3349;3349;1;13024;28.74;29.54;31,7;BCS1388054;7;17
001098;16.12.2019;20:53:59;Stop          ;15.02.2018;FEY;;LION;49;14500;7200;192;26;85;90;8400;3000;4030;4032;1;13024;31.44;31.04;32,1;BCS1388054;7;17
001098;17.12.2019;08:38:02;Fastcharge    ;15.02.2018;FEY;;LION;49;14500;7200;192;26;85;90;8400;3000;4021;4022;1;13024;26.24;27.84;31,6;BCS1388054;7;17
001098;17.12.2019;10:36:25;Stop          ;15.02.2018;FEY;;LION;49;14500;7200;224;26;95;100;8400;;4162;4163;1;13024;27.94;29.04;31,5;BCS1388054;7;17
001098;17.12.2019;13:38:44;Charge to 10% ;15.02.2018;FEY;;LION;49;14500;7200;224;26;95;100;8400;;4153;4154;1;13025;26.54;27.84;30,8;BCS1388054;7;17
001098;17.12.2019;20:42:03;Stop          ;15.02.2018;FEY;;LION;49;14500;7200;192;27;10;10;8400;3000;3351;3351;1;13023;33.64;32.34;32,6;BCS1388054;7;17
001098;18.12.2019;08:31:43;Fastcharge    ;15.02.2018;FEY;;LION;49;14500;7200;192;27;9;9;8400;3000;3362;3362;1;13024;26.34;27.94;31,6;BCS1388054;7;17
001098;18.12.2019;14:30:48;Stop          ;15.02.2018;FEY;;LION;49;14500;7200;224;27;94;100;8400;;4163;4162;1;13025;29.74;29.74;31,6;BCS1388054;7;17
001098;19.12.2019;08:24:17;Charge to 60% ;15.02.2018;FEY;;LION;49;14500;7200;224;27;95;100;8400;;4151;4150;1;13025;26.34;27.84;31,6;BCS1388054;7;17
001098;19.12.2019;11:28:26;Stop          ;15.02.2018;FEY;;LION;49;14500;7200;192;28;58;60;8400;3000;3760;3757;1;13023;33.64;36.54;35,1;BCS1388054;7;17
001098;19.12.2019;12:16:57;Cycle         ;15.02.2018;FEY;;LION;49;14500;7200;192;28;58;60;8400;3000;3779;3777;1;13024;30.04;29.84;32,7;BCS1388054;7;17
001098;20.12.2019;17:22:28;Stop          ;15.02.2018;FEY;;LION;49;14500;7200;224;29;94;100;8400;;4154;4155;1;13025;26.64;28.14;31,9;BCS1388054;7;17
001098;06.01.2020;06:35:02;Charge to 60% ;15.02.2018;FEY;;LION;49;14500;7200;192;29;93;98;8400;;4124;4124;1;13027;26.44;27.94;31,9;BCS1388054;7;17
001098;06.01.2020;09:29:52;Stop          ;15.02.2018;FEY;;LION;49;14500;7200;192;30;57;60;8400;3000;3762;3761;1;13023;32.74;35.04;34,0;BCS1388054;7;17
001098;06.01.2020;09:50:50;Fastcharge    ;15.02.2018;FEY;;LION;49;14500;7200;192;30;57;60;8400;3000;3775;3775;1;13026;31.04;30.34;32,7;BCS1388054;7;17
001098;06.01.2020;13:05:11;Stop          ;15.02.2018;FEY;;LION;49;14500;7200;224;30;95;100;8400;;4162;4163;1;13025;29.24;29.94;32,4;BCS1388054;7;17