File: V2/reader/Batterieverzeichnis_new/009576.txt
Serialnumber ; Date ; Time ; Action ; Date of Manufacture ; Manufacturer ; Battery Name ; Device-Chemistry ; Specification-Info ; Design-Capacity [mAh] ; Design-Voltage [mV] ; Battery Status ; Cycle Count ; SOC [%] ; Relativ SOC[%] ; Desired Voltage [mV]; Desired Current [mA]; Cell Voltage 1 [mV] ; Cell Voltage 2 [mV] ; Max_Error [%] ; Busvoltage[mV] ; Battery Temperature [°C] ; Charger Temperature [°C] ; Batterysystem ; Case ; PLace
009576;07.12.2020;04:14:40;Cycle         ;04.12.2018;FEY;;LION;49;14500;7200;192;3;95;96;8400;;4112;4111;1;13026;25.64;28.34;30,3;BCS1388054;7;8
009576;08.12.2020;16:20:20;Stop          ;04.12.2018;FEY;;LION;49;14500;7200;192;3;95;96;8400;;4110;4110;1;13029;27.74;29.74;31,9;BCS1388054;7;8
009576;12.01.2021;04:17:36;Charge to 90% ;04.12.2018;FEY;;LION;49;14500;7200;192;3;95;96;8400;;4099;4099;1;13020;23.04;23.74;23,6;BCS1388054;5;18
009576;12.01.2021;05:15:37;Stop          ;04.12.2018;FEY;;LION;49;14500;7200;192;4;90;90;8400;3000;4044;4044;1;13014;27.24;28.54;31,6;BCS1388054;5;18
009576;12.01.2021;05:21:53;Cycle         ;04.12.2018;FEY;;LION;49;14500;7200;192;4;90;90;8400;3000;4044;4044;1;13014;27.04;28.24;30,6;BCS1388054;5;18
009576;13.01.2021;08:31:10;Stop          ;04.12.2018;FEY;;LION;49;14500;7200;224;5;97;100;8400;;4156;4158;1;13014;26.84;28.24;31,1;BCS1388054;5;18
009576;21.02.2021;13:43:19;Normalcharge  ;04.12.2018;FEY;;LION;49;14500;7200;192;5;71;74;8400;3000;3881;3883;1;13005;23.74;25.34;27,5;BCS1388054;1;7
009576;22.02.2021;17:08:49;Stop          ;04.12.2018;FEY;;LION;49;14500;7200;224;5;97;100;8400;;4147;4148;1;13006;26.34;27.34;30,0;BCS1388054;1;7