File: V2/reader/Batterieverzeichnis_new/009563.txt
Serialnumber ; Date ; Time ; Action ; Date of Manufacture ; Manufacturer ; Battery Name ; Device-Chemistry ; Specification-Info ; Design-Capacity [mAh] ; Design-Voltage [mV] ; Battery Status ; Cycle Count ; SOC [%] ; Relativ SOC[%] ; Desired Voltage [mV]; Desired Current [mA]; Cell Voltage 1 [mV] ; Cell Voltage 2 [mV] ; Max_Error [%] ; Busvoltage[mV] ; Battery Temperature [°C] ; Charger Temperature [°C] ; Batterysystem ; Case ; PLace
009563;10.12.2019;15:29:09;Charge to 30% ;04.12.2018;FEY;;LION;49;14500;7200;224;28;93;100;8400;;4121;4123;1;13023;22.74;25.54;27,1;BCS1388054;6;3
009563;10.12.2019;20:46:41;Stop          ;04.12.2018;FEY;;LION;49;14500;7200;192;29;28;30;8400;3000;3548;3550;1;13020;32.94;35.34;33,6;BCS1388054;6;3
009563;11.12.2019;08:49:03;Fastcharge    ;04.12.2018;FEY;;LION;49;14500;7200;192;29;28;30;8400;3000;3563;3565;1;13022;26.44;28.64;31,9;BCS1388054;6;3
009563;11.12.2019;13:39:30;Stop          ;04.12.2018;FEY;;LION;49;14500;7200;224;29;94;100;8400;;4165;4166;1;13022;29.94;31.14;32,5;BCS1388054;6;3
009563;11.12.2019;15:46:47;Charge to 10% ;04.12.2018;FEY;;LION;49;14500;7200;224;29;96;100;8400;;4156;4157;1;13023;27.24;28.84;31,4;BCS1388054;6;3
009563;11.12.2019;22:52:10;Stop          ;04.12.2018;FEY;;LION;49;14500;7200;192;30;10;10;8400;3000;3351;3353;1;13022;33.54;33.44;33,0;BCS1388054;6;3
009563;12.12.2019;08:45:18;Normalcharge  ;04.12.2018;FEY;;LION;49;14500;7200;192;30;9;10;8400;3000;3361;3362;1;13022;26.64;28.84;31,7;BCS1388054;6;3
009563;12.12.2019;16:41:29;Stop          ;04.12.2018;FEY;;LION;49;14500;7200;224;30;96;100;8400;;4164;4166;1;13021;29.14;30.24;31,5;BCS1388054;6;3
009563;13.12.2019;10:48:09;Charge to 10% ;04.12.2018;FEY;;LION;49;14500;7200;224;30;96;100;8400;;4152;4153;1;13022;26.64;28.94;32,0;BCS1388054;6;3
009563;13.12.2019;13:51:54;Stop          ;04.12.2018;FEY;;LION;49;14500;7200;192;31;58;61;8400;3000;3679;3734;1;13500;34.14;40.44;36,1;BCS1388054;6;3
009563;13.12.2019;13:53:13;Fastcharge    ;04.12.2018;FEY;;LION;49;14500;7200;192;31;58;61;8400;3000;3765;3768;1;13019;34.04;37.94;35,8;BCS1388054;6;3
009563;13.12.2019;13:53:19;Stop          ;04.12.2018;FEY;;LION;49;14500;7200;192;31;58;61;8400;3000;3766;3769;1;13010;34.04;37.54;35,8;BCS1388054;6;3
009563;13.12.2019;13:53:25;Normalcharge  ;04.12.2018;FEY;;LION;49;14500;7200;192;31;58;61;8400;3000;3766;3769;1;13019;34.04;37.44;35,8;BCS1388054;6;3
009563;13.12.2019;20:04:59;Stop          ;04.12.2018;FEY;;LION;49;14500;7200;224;31;96;100;8400;;4155;4156;1;13022;27.94;29.74;32,0;BCS1388054;6;3
009563;16.12.2019;07:43:27;Charge to 10% ;04.12.2018;FEY;;LION;49;14500;7200;224;31;96;100;8400;;4147;4147;1;13024;26.44;27.74;31,7;BCS1388054;6;3
009563;16.12.2019;14:43:10;Stop          ;04.12.2018;FEY;;LION;49;14500;7200;192;32;10;10;8400;3000;3345;3347;1;13022;31.64;32.54;31,7;BCS1388054;6;3
009563;16.12.2019;14:44:21;Charge to 90% ;04.12.2018;FEY;;LION;49;14500;7200;192;32;10;10;8400;3000;3347;3349;1;13022;31.64;31.64;31,9;BCS1388054;6;3
009563;16.12.2019;20:54:26;Stop          ;04.12.2018;FEY;;LION;49;14500;7200;192;32;85;90;8400;3000;4042;4043;1;13022;31.54;31.84;32,1;BCS1388054;6;3
009563;17.12.2019;08:37:57;Fastcharge    ;04.12.2018;FEY;;LION;49;14500;7200;192;32;85;90;8400;3000;4033;4034;1;13023;26.54;28.74;31,6;BCS1388054;6;3
009563;17.12.2019;13:38:40;Charge to 10% ;04.12.2018;FEY;;LION;49;14500;7200;224;32;96;100;8400;;4153;4152;1;13023;26.84;28.64;30,8;BCS1388054;6;3
009563;17.12.2019;20:41:40;Stop          ;04.12.2018;FEY;;LION;49;14500;7200;192;33;10;10;8400;3000;3345;3346;1;13022;33.54;34.04;32,6;BCS1388054;6;3
009563;18.12.2019;08:31:34;Fastcharge    ;04.12.2018;FEY;;LION;49;14500;7200;192;33;9;9;8400;3000;3359;3360;1;13023;26.64;28.64;31,6;BCS1388054;6;3
009563;18.12.2019;14:33:31;Stop          ;04.12.2018;FEY;;LION;49;14500;7200;224;33;95;100;8400;;4162;4161;1;13022;29.74;30.24;31,4;BCS1388054;6;3
009563;19.12.2019;08:24:06;Charge to 60% ;04.12.2018;FEY;;LION;49;14500;7200;224;33;96;100;8400;;4151;4149;1;13023;26.54;28.74;31,5;BCS1388054;6;3
009563;19.12.2019;11:34:24;Stop          ;04.12.2018;FEY;;LION;49;14500;7200;192;34;58;60;8400;3000;3738;3739;1;13022;33.44;37.24;33,5;BCS1388054;6;3
009563;19.12.2019;12:16:53;Cycle         ;04.12.2018;FEY;;LION;49;14500;7200;192;34;58;61;8400;3000;3760;3761;1;13023;30.34;30.64;32,7;BCS1388054;6;3
009563;20.12.2019;17:31:05;Stop          ;04.12.2018;FEY;;LION;49;14500;7200;224;35;93;100;8400;;4155;4155;1;13024;26.84;28.54;30,6;BCS1388054;6;3
009563;06.01.2020;06:34:58;Charge to 60% ;04.12.2018;FEY;;LION;49;14500;7200;192;35;91;98;8400;;4124;4124;1;13024;26.74;28.84;31,9;BCS1388054;6;3
009563;06.01.2020;09:30:42;Stop          ;04.12.2018;FEY;;LION;49;14500;7200;192;36;57;60;8400;3000;3768;3769;1;13023;32.64;34.54;33,7;BCS1388054;6;3
009563;06.01.2020;09:50:46;Fastcharge    ;04.12.2018;FEY;;LION;49;14500;7200;192;36;57;60;8400;3000;3780;3782;1;13023;31.24;31.14;32,7;BCS1388054;6;3
009563;06.01.2020;13:06:22;Stop          ;04.12.2018;FEY;;LION;49;14500;7200;224;36;95;100;8400;;4162;4163;1;13024;29.44;30.54;32,1;BCS1388054;6;3