File: V2/reader/Batterieverzeichnis_new/009523.txt
Serialnumber ; Date ; Time ; Action ; Date of Manufacture ; Manufacturer ; Battery Name ; Device-Chemistry ; Specification-Info ; Design-Capacity [mAh] ; Design-Voltage [mV] ; Battery Status ; Cycle Count ; SOC [%] ; Relativ SOC[%] ; Desired Voltage [mV]; Desired Current [mA]; Cell Voltage 1 [mV] ; Cell Voltage 2 [mV] ; Max_Error [%] ; Busvoltage[mV] ; Battery Temperature [°C] ; Charger Temperature [°C] ; Batterysystem ; Case ; PLace
009523;10.12.2019;15:28:33;Charge to 30% ;03.12.2018;FEY;;LION;49;14500;7200;192;43;91;98;8400;;4110;4108;1;12999;23.34;25.64;27,1;BCS1388054;1;1
009523;10.12.2019;20:42:16;Stop          ;03.12.2018;FEY;;LION;49;14500;7200;192;44;29;30;8400;3000;3562;3561;1;12999;31.94;33.24;34,1;BCS1388054;1;1
009523;11.12.2019;08:48:18;Fastcharge    ;03.12.2018;FEY;;LION;49;14500;7200;192;44;29;30;8400;3000;3569;3568;1;12999;25.94;28.14;31,9;BCS1388054;1;1
009523;11.12.2019;13:40:21;Stop          ;03.12.2018;FEY;;LION;49;14500;7200;224;44;94;100;8400;;4162;4162;1;12999;28.94;29.94;32,4;BCS1388054;1;1
009523;11.12.2019;15:45:57;Charge to 30% ;03.12.2018;FEY;;LION;49;14500;7200;224;44;95;100;8400;;4154;4154;1;12999;26.64;28.34;31,5;BCS1388054;1;1
009523;11.12.2019;15:46:00;Stop          ;03.12.2018;FEY;;LION;49;14500;7200;224;44;95;100;8400;;4154;4154;1;12998;26.64;28.34;31,5;BCS1388054;1;1
009523;11.12.2019;15:46:13;Charge to 10% ;03.12.2018;FEY;;LION;49;14500;7200;224;44;95;100;8400;;4154;4154;1;12999;26.64;28.34;31,5;BCS1388054;1;1
009523;11.12.2019;22:50:20;Stop          ;03.12.2018;FEY;;LION;49;14500;7200;192;45;10;10;8400;3000;3354;3354;1;13000;32.44;32.74;33,4;BCS1388054;1;1
009523;12.12.2019;08:44:40;Normalcharge  ;03.12.2018;FEY;;LION;49;14500;7200;192;45;9;10;8400;3000;3363;3363;1;12997;26.24;28.34;31,9;BCS1388054;1;1
009523;12.12.2019;16:39:22;Stop          ;03.12.2018;FEY;;LION;49;14500;7200;224;45;95;100;8400;;4160;4161;1;12999;28.34;29.54;31,7;BCS1388054;1;1
009523;13.12.2019;10:47:47;Charge to 10% ;03.12.2018;FEY;;LION;49;14500;7200;224;45;95;100;8400;;4149;4149;1;12999;26.14;28.34;32,0;BCS1388054;1;1
009523;13.12.2019;15:41:58;Stop          ;03.12.2018;FEY;;LION;49;14500;7200;192;46;34;36;8400;3000;3499;3549;1;13619;31.94;37.34;34,6;BCS1388054;1;1
009523;13.12.2019;15:42:01;Cycle         ;03.12.2018;FEY;;LION;49;14500;7200;192;46;34;36;8400;3000;3499;3549;1;12999;31.94;37.34;34,6;BCS1388054;1;1
009523;14.12.2019;22:41:25;Stop          ;03.12.2018;FEY;;LION;49;14500;7200;224;47;93;99;8400;;4152;4151;1;12999;26.24;28.24;31,9;BCS1388054;1;1
009523;16.12.2019;07:43:03;Charge to 10% ;03.12.2018;FEY;;LION;49;14500;7200;224;47;93;100;8400;;4146;4145;1;12999;25.94;27.84;31,9;BCS1388054;1;1
009523;16.12.2019;14:36:13;Stop          ;03.12.2018;FEY;;LION;49;14500;7200;192;48;10;10;8400;3000;3367;3366;1;12999;31.54;31.84;32,4;BCS1388054;1;1
009523;16.12.2019;14:44:00;Charge to 90% ;03.12.2018;FEY;;LION;49;14500;7200;192;48;10;10;8400;3000;3368;3368;1;12999;31.04;30.74;31,7;BCS1388054;1;1
009523;16.12.2019;20:50:03;Stop          ;03.12.2018;FEY;;LION;49;14500;7200;192;48;84;90;8400;3000;4053;4054;1;13000;30.54;30.94;31,7;BCS1388054;1;1
009523;17.12.2019;08:37:36;Fastcharge    ;03.12.2018;FEY;;LION;49;14500;7200;192;48;84;90;8400;3000;4045;4045;1;12998;26.04;28.04;31,6;BCS1388054;1;1
009523;17.12.2019;10:31:11;Stop          ;03.12.2018;FEY;;LION;49;14500;7200;224;48;94;100;8400;;4161;4162;1;12999;27.34;28.94;31,4;BCS1388054;1;1
009523;17.12.2019;13:38:19;Charge to 10% ;03.12.2018;FEY;;LION;49;14500;7200;224;48;94;100;8400;;4151;4151;1;12998;26.24;27.84;30,8;BCS1388054;1;1
009523;17.12.2019;20:33:50;Stop          ;03.12.2018;FEY;;LION;49;14500;7200;192;50;10;10;8400;3000;3364;3364;1;12999;32.54;33.04;34,2;BCS1388054;1;1
009523;18.12.2019;08:31:14;Fastcharge    ;03.12.2018;FEY;;LION;49;14500;7200;192;50;10;10;8400;3000;3373;3373;1;12999;26.14;28.14;31,6;BCS1388054;1;1
009523;18.12.2019;14:28:33;Stop          ;03.12.2018;FEY;;LION;49;14500;7200;224;50;94;100;8400;;4160;4161;1;12999;28.94;29.84;31,9;BCS1388054;1;1
009523;19.12.2019;08:23:45;Charge to 60% ;03.12.2018;FEY;;LION;49;14500;7200;224;50;95;100;8400;;4149;4150;1;12999;26.04;28.04;31,5;BCS1388054;1;1
009523;19.12.2019;11:29:32;Stop          ;03.12.2018;FEY;;LION;49;14500;7200;192;50;57;60;8400;3000;3764;3766;1;13000;32.54;33.84;34,9;BCS1388054;1;1
009523;19.12.2019;12:16:33;Cycle         ;03.12.2018;FEY;;LION;49;14500;7200;192;50;57;60;8400;3000;3775;3777;1;13000;29.24;29.94;32,7;BCS1388054;1;1
009523;20.12.2019;17:26:19;Stop          ;03.12.2018;FEY;;LION;49;14500;7200;224;51;93;100;8400;;4152;4153;1;12999;26.24;27.94;31,2;BCS1388054;1;1
009523;06.01.2020;06:34:38;Charge to 60% ;03.12.2018;FEY;;LION;49;14500;7200;224;51;92;99;8400;;4122;4123;1;12999;26.04;28.04;31,9;BCS1388054;1;1
009523;06.01.2020;09:30:29;Stop          ;03.12.2018;FEY;;LION;49;14500;7200;192;52;56;60;8400;3000;3765;3767;1;13001;31.74;32.84;33,9;BCS1388054;1;1
009523;06.01.2020;09:50:27;Fastcharge    ;03.12.2018;FEY;;LION;49;14500;7200;192;52;56;60;8400;3000;3773;3775;1;13001;30.34;30.44;32,6;BCS1388054;1;1
009523;06.01.2020;13:07:36;Stop          ;03.12.2018;FEY;;LION;49;14500;7200;224;52;94;100;8400;;4161;4162;1;13000;28.44;29.64;31,7;BCS1388054;1;1