File: V2/reader/Batterieverzeichnis_new/009613.txt
Serialnumber ; Date ; Time ; Action ; Date of Manufacture ; Manufacturer ; Battery Name ; Device-Chemistry ; Specification-Info ; Design-Capacity [mAh] ; Design-Voltage [mV] ; Battery Status ; Cycle Count ; SOC [%] ; Relativ SOC[%] ; Desired Voltage [mV]; Desired Current [mA]; Cell Voltage 1 [mV] ; Cell Voltage 2 [mV] ; Max_Error [%] ; Busvoltage[mV] ; Battery Temperature [°C] ; Charger Temperature [°C] ; Batterysystem ; Case ; PLace
009613;07.12.2020;04:14:25;Cycle          ;04.12.2018;FEY;;LION;49;14500;7200;16576;4;98;99;;;4146;4145;1;12998;25.34;26.64;30,3;BCS1388054;3;6
009613;08.12.2020;16:19:50;Stop           ;04.12.2018;FEY;;LION;49;14500;7200;16576;4;98;100;;;4144;4142;1;12997;27.34;27.94;31,9;BCS1388054;3;6
009613;12.01.2021;04:17:40;Charge to 90% ;04.12.2018;FEY;;LION;49;14500;7200;16576;4;96;98;;;4129;4128;1;13017;22.74;24.24;23,6;BCS1388054;6;17
009613;12.01.2021;05:00:55;Stop          ;04.12.2018;FEY;;LION;49;14500;7200;192;4;89;90;8400;3000;4051;4050;1;13012;26.64;30.04;31,2;BCS1388054;6;17
009613;12.01.2021;05:21:57;Cycle         ;04.12.2018;FEY;;LION;49;14500;7200;192;4;89;90;8400;3000;4056;4055;1;13013;26.54;28.84;30,4;BCS1388054;6;17
009613;13.01.2021;08:31:18;Stop          ;04.12.2018;FEY;;LION;49;14500;7200;224;5;98;100;8400;;4155;4156;1;13011;26.44;28.84;31,1;BCS1388054;6;17
009613;21.02.2021;13:43:49;Normalcharge  ;04.12.2018;FEY;;LION;49;14500;7200;224;5;96;99;8400;;4131;4132;1;12998;22.54;23.64;27,7;BCS1388054;3;8
009613;21.02.2021;20:44:52;Stop           ;04.12.2018;FEY;;LION;49;14500;7200;224;5;96;99;8400;;4131;4132;1;12993;26.54;28.44;31,2;BCS1388054;3;8