File: V2/reader/Batterieverzeichnis_new/009697.txt
Serialnumber ; Date ; Time ; Action ; Date of Manufacture ; Manufacturer ; Battery Name ; Device-Chemistry ; Specification-Info ; Design-Capacity [mAh] ; Design-Voltage [mV] ; Battery Status ; Cycle Count ; SOC [%] ; Relativ SOC[%] ; Desired Voltage [mV]; Desired Current [mA]; Cell Voltage 1 [mV] ; Cell Voltage 2 [mV] ; Max_Error [%] ; Busvoltage[mV] ; Battery Temperature [°C] ; Charger Temperature [°C] ; Batterysystem ; Case ; PLace
009697;10.12.2019;15:28:33;Charge to 30% ;04.12.2018;FEY;;LION;49;14500;7200;192;46;91;98;8400;;4108;4107;1;13008;23.64;26.64;27,1;BCS1388054;1;3
009697;10.12.2019;20:42:16;Stop          ;04.12.2018;FEY;;LION;49;14500;7200;192;47;28;30;8400;3000;3561;3559;1;13003;32.44;33.94;34,1;BCS1388054;1;3
009697;11.12.2019;08:48:18;Fastcharge    ;04.12.2018;FEY;;LION;49;14500;7200;192;47;28;30;8400;3000;3569;3567;1;13007;26.34;28.94;31,9;BCS1388054;1;3
009697;11.12.2019;13:40:21;Stop          ;04.12.2018;FEY;;LION;49;14500;7200;224;47;94;100;8400;;4162;4162;1;13005;29.54;30.84;32,4;BCS1388054;1;3
009697;11.12.2019;15:45:57;Charge to 30% ;04.12.2018;FEY;;LION;49;14500;7200;224;47;95;100;8400;;4153;4153;1;13007;27.04;29.24;31,5;BCS1388054;1;3
009697;11.12.2019;15:46:00;Stop          ;04.12.2018;FEY;;LION;49;14500;7200;224;47;95;100;8400;;4153;4153;1;13006;27.04;29.14;31,5;BCS1388054;1;3
009697;11.12.2019;15:46:13;Charge to 10% ;04.12.2018;FEY;;LION;49;14500;7200;224;47;95;100;8400;;4153;4153;1;13006;27.04;29.14;31,5;BCS1388054;1;3
009697;11.12.2019;22:50:20;Stop          ;04.12.2018;FEY;;LION;49;14500;7200;192;48;10;10;8400;3000;3353;3353;1;13005;32.94;33.34;33,4;BCS1388054;1;3
009697;12.12.2019;08:44:40;Normalcharge  ;04.12.2018;FEY;;LION;49;14500;7200;192;48;9;10;8400;3000;3363;3363;1;13007;26.44;29.14;31,9;BCS1388054;1;3
009697;12.12.2019;16:39:22;Stop          ;04.12.2018;FEY;;LION;49;14500;7200;224;48;95;100;8400;;4161;4161;1;13005;28.74;30.44;31,7;BCS1388054;1;3
009697;13.12.2019;10:47:47;Charge to 10% ;04.12.2018;FEY;;LION;49;14500;7200;224;48;95;100;8400;;4149;4148;1;13006;26.54;29.24;32,0;BCS1388054;1;3
009697;13.12.2019;15:41:58;Stop          ;04.12.2018;FEY;;LION;49;14500;7200;192;49;34;36;8400;3000;3499;3548;1;13628;32.34;38.74;34,6;BCS1388054;1;3
009697;13.12.2019;15:42:01;Cycle         ;04.12.2018;FEY;;LION;49;14500;7200;192;49;34;36;8400;3000;3573;3572;1;13004;32.34;38.74;34,6;BCS1388054;1;3
009697;14.12.2019;22:41:25;Stop          ;04.12.2018;FEY;;LION;49;14500;7200;224;50;93;99;8400;;4151;4150;1;13007;26.54;28.94;31,9;BCS1388054;1;3
009697;16.12.2019;07:43:03;Charge to 10% ;04.12.2018;FEY;;LION;49;14500;7200;224;50;93;100;8400;;4146;4144;1;13007;26.24;28.54;31,9;BCS1388054;1;3
009697;16.12.2019;14:36:13;Stop          ;04.12.2018;FEY;;LION;49;14500;7200;192;51;10;10;8400;3000;3365;3364;1;13005;31.94;32.44;32,4;BCS1388054;1;3
009697;16.12.2019;14:44:00;Charge to 90% ;04.12.2018;FEY;;LION;49;14500;7200;192;51;10;10;8400;3000;3367;3365;1;13005;31.44;31.44;31,7;BCS1388054;1;3
009697;16.12.2019;20:50:03;Stop          ;04.12.2018;FEY;;LION;49;14500;7200;192;51;84;90;8400;3000;4054;4054;1;13007;31.04;31.54;31,7;BCS1388054;1;3
009697;17.12.2019;08:37:36;Fastcharge    ;04.12.2018;FEY;;LION;49;14500;7200;192;51;84;90;8400;3000;4045;4045;1;13007;26.34;28.84;31,6;BCS1388054;1;3
009697;17.12.2019;10:31:11;Stop          ;04.12.2018;FEY;;LION;49;14500;7200;224;51;94;100;8400;;4163;4164;1;13007;27.74;30.14;31,4;BCS1388054;1;3
009697;17.12.2019;13:38:19;Charge to 10% ;04.12.2018;FEY;;LION;49;14500;7200;224;51;94;100;8400;;4150;4150;1;13007;26.64;28.74;30,8;BCS1388054;1;3
009697;17.12.2019;20:33:50;Stop          ;04.12.2018;FEY;;LION;49;14500;7200;192;52;10;10;8400;3000;3362;3362;1;13005;33.04;33.54;34,2;BCS1388054;1;3
009697;18.12.2019;08:31:14;Fastcharge    ;04.12.2018;FEY;;LION;49;14500;7200;192;52;10;10;8400;3000;3372;3372;1;13007;26.44;28.94;31,6;BCS1388054;1;3
009697;18.12.2019;14:28:33;Stop          ;04.12.2018;FEY;;LION;49;14500;7200;224;52;94;100;8400;;4160;4163;1;13006;29.54;30.64;31,9;BCS1388054;1;3
009697;19.12.2019;08:23:45;Charge to 60% ;04.12.2018;FEY;;LION;49;14500;7200;224;52;95;100;8400;;4148;4150;1;13006;26.34;28.84;31,5;BCS1388054;1;3
009697;19.12.2019;11:29:32;Stop          ;04.12.2018;FEY;;LION;49;14500;7200;192;52;57;60;8400;3000;3762;3764;1;13005;32.94;34.84;34,9;BCS1388054;1;3
009697;19.12.2019;12:16:33;Cycle         ;04.12.2018;FEY;;LION;49;14500;7200;192;52;57;60;8400;3000;3772;3775;1;13006;29.94;30.74;32,7;BCS1388054;1;3
009697;20.12.2019;17:26:19;Stop          ;04.12.2018;FEY;;LION;49;14500;7200;224;53;93;100;8400;;4152;4151;1;13006;26.54;28.74;31,2;BCS1388054;1;3
009697;06.01.2020;06:34:38;Charge to 60% ;04.12.2018;FEY;;LION;49;14500;7200;224;53;92;99;8400;;4122;4121;1;13007;26.34;28.84;31,9;BCS1388054;1;3
009697;06.01.2020;09:30:29;Stop          ;04.12.2018;FEY;;LION;49;14500;7200;192;53;56;60;8400;3000;3763;3762;1;13006;32.24;33.84;33,9;BCS1388054;1;3
009697;06.01.2020;09:50:27;Fastcharge    ;04.12.2018;FEY;;LION;49;14500;7200;192;53;56;60;8400;3000;3771;3771;1;13007;30.84;31.14;32,6;BCS1388054;1;3
009697;06.01.2020;13:07:36;Stop          ;04.12.2018;FEY;;LION;49;14500;7200;224;53;94;100;8400;;4160;4160;1;13008;29.04;30.44;31,7;BCS1388054;1;3