File: V2/reader/Batterieverzeichnis_new/009632.txt
Serialnumber ; Date ; Time ; Action ; Date of Manufacture ; Manufacturer ; Battery Name ; Device-Chemistry ; Specification-Info ; Design-Capacity [mAh] ; Design-Voltage [mV] ; Battery Status ; Cycle Count ; SOC [%] ; Relativ SOC[%] ; Desired Voltage [mV]; Desired Current [mA]; Cell Voltage 1 [mV] ; Cell Voltage 2 [mV] ; Max_Error [%] ; Busvoltage[mV] ; Battery Temperature [°C] ; Charger Temperature [°C] ; Batterysystem ; Case ; PLace
009632;10.12.2019;15:28:40;Charge to 30% ;04.12.2018;FEY;;LION;49;14500;7200;224;48;92;99;8400;;4132;4131;1;13013;23.04;24.84;27,1;BCS1388054;2;8
009632;10.12.2019;20:48:37;Stop          ;04.12.2018;FEY;;LION;49;14500;7200;192;49;28;30;8400;3000;3561;3560;1;13010;34.24;34.14;33,2;BCS1388054;2;8
009632;11.12.2019;08:48:24;Fastcharge    ;04.12.2018;FEY;;LION;49;14500;7200;192;49;28;30;8400;3000;3568;3567;1;13012;26.54;28.34;31,9;BCS1388054;2;8
009632;11.12.2019;13:39:47;Stop          ;04.12.2018;FEY;;LION;49;14500;7200;224;49;94;100;8400;;4162;4162;1;13011;31.34;31.04;32,5;BCS1388054;2;8
009632;11.12.2019;15:46:18;Charge to 10% ;04.12.2018;FEY;;LION;49;14500;7200;224;49;95;100;8400;;4154;4154;1;13011;27.64;28.84;31,4;BCS1388054;2;8
009632;11.12.2019;22:49:04;Stop          ;04.12.2018;FEY;;LION;49;14500;7200;192;50;10;10;8400;3000;3358;3358;1;13011;35.14;34.64;33,6;BCS1388054;2;8
009632;12.12.2019;08:44:52;Normalcharge  ;04.12.2018;FEY;;LION;49;14500;7200;192;50;9;10;8400;3000;3366;3367;1;13011;26.74;28.54;31,9;BCS1388054;2;8
009632;12.12.2019;16:40:06;Stop          ;04.12.2018;FEY;;LION;49;14500;7200;224;50;95;100;8400;;4159;4162;1;13010;30.14;30.54;31,7;BCS1388054;2;8
009632;13.12.2019;10:47:50;Charge to 10% ;04.12.2018;FEY;;LION;49;14500;7200;224;50;94;100;8400;;4148;4151;1;13011;26.74;28.54;32,0;BCS1388054;2;8
009632;13.12.2019;15:42:08;Cycle         ;04.12.2018;FEY;;LION;49;14500;7200;192;51;34;36;8400;3000;3499;3551;1;13571;33.94;39.34;34,6;BCS1388054;2;8
009632;13.12.2019;15:42:08;Stop          ;04.12.2018;FEY;;LION;49;14500;7200;192;51;34;36;8400;3000;3499;3551;1;13571;33.94;39.34;34,6;BCS1388054;2;8
009632;14.12.2019;22:48:51;Stop          ;04.12.2018;FEY;;LION;49;14500;7200;224;52;93;100;8400;;4152;4150;1;13011;27.04;28.54;32,0;BCS1388054;2;8
009632;16.12.2019;07:43:06;Charge to 10% ;04.12.2018;FEY;;LION;49;14500;7200;224;52;93;100;8400;;4146;4145;1;13012;26.44;28.04;31,9;BCS1388054;2;8
009632;16.12.2019;14:37:54;Stop          ;04.12.2018;FEY;;LION;49;14500;7200;192;53;10;10;8400;3000;3366;3366;1;13011;33.64;32.94;32,4;BCS1388054;2;8
009632;16.12.2019;14:44:03;Charge to 90% ;04.12.2018;FEY;;LION;49;14500;7200;192;53;10;10;8400;3000;3367;3367;1;13012;33.24;32.04;31,9;BCS1388054;2;8
009632;16.12.2019;20:51:09;Stop          ;04.12.2018;FEY;;LION;49;14500;7200;192;53;83;90;8400;3000;4054;4055;1;13013;32.64;32.14;31,6;BCS1388054;2;8
009632;17.12.2019;08:37:40;Fastcharge    ;04.12.2018;FEY;;LION;49;14500;7200;192;53;83;90;8400;3000;4046;4046;1;13012;26.54;28.24;31,6;BCS1388054;2;8
009632;17.12.2019;10:30:36;Stop          ;04.12.2018;FEY;;LION;49;14500;7200;224;53;94;100;8400;;4163;4164;1;13011;28.44;30.34;31,5;BCS1388054;2;8
009632;17.12.2019;13:38:22;Charge to 10% ;04.12.2018;FEY;;LION;49;14500;7200;224;53;94;100;8400;;4150;4150;1;13012;26.94;28.44;30,8;BCS1388054;2;8
009632;17.12.2019;20:36:00;Stop          ;04.12.2018;FEY;;LION;49;14500;7200;192;54;10;10;8400;3000;3364;3365;1;13010;34.94;34.34;33,6;BCS1388054;2;8
009632;18.12.2019;08:31:17;Fastcharge    ;04.12.2018;FEY;;LION;49;14500;7200;192;54;10;11;8400;3000;3373;3374;1;13012;26.64;28.44;31,6;BCS1388054;2;8
009632;18.12.2019;14:28:27;Stop          ;04.12.2018;FEY;;LION;49;14500;7200;224;54;94;100;8400;;4160;4163;1;13012;31.34;31.04;32,0;BCS1388054;2;8
009632;19.12.2019;08:23:50;Charge to 60% ;04.12.2018;FEY;;LION;49;14500;7200;224;54;95;100;8400;;4149;4151;1;13011;26.54;28.24;31,5;BCS1388054;2;8
009632;19.12.2019;11:32:11;Stop          ;04.12.2018;FEY;;LION;49;14500;7200;192;55;57;60;8400;3000;3768;3770;1;13011;34.64;34.84;34,0;BCS1388054;2;8
009632;19.12.2019;12:16:37;Cycle         ;04.12.2018;FEY;;LION;49;14500;7200;192;55;57;60;8400;3000;3776;3779;1;13011;31.64;30.84;32,7;BCS1388054;2;8
009632;20.12.2019;17:35:47;Stop          ;04.12.2018;FEY;;LION;49;14500;7200;224;56;93;100;8400;;4152;4153;1;13012;27.04;28.24;31,1;BCS1388054;2;8
009632;06.01.2020;06:34:42;Charge to 60% ;04.12.2018;FEY;;LION;49;14500;7200;192;56;91;98;8400;;4123;4123;1;13012;26.64;28.24;31,9;BCS1388054;2;8
009632;06.01.2020;09:32:11;Stop          ;04.12.2018;FEY;;LION;49;14500;7200;192;56;56;60;8400;3000;3774;3775;1;13012;33.84;33.94;33,2;BCS1388054;2;8
009632;06.01.2020;09:50:30;Fastcharge    ;04.12.2018;FEY;;LION;49;14500;7200;192;56;56;60;8400;3000;3780;3782;1;13013;32.64;31.54;32,7;BCS1388054;2;8
009632;06.01.2020;13:08:34;Stop          ;04.12.2018;FEY;;LION;49;14500;7200;224;56;93;100;8400;;4160;4160;1;13013;30.74;30.44;31,6;BCS1388054;2;8