File: V2/reader/Batterieverzeichnis_new/009625.txt
Serialnumber ; Date ; Time ; Action ; Date of Manufacture ; Manufacturer ; Battery Name ; Device-Chemistry ; Specification-Info ; Design-Capacity [mAh] ; Design-Voltage [mV] ; Battery Status ; Cycle Count ; SOC [%] ; Relativ SOC[%] ; Desired Voltage [mV]; Desired Current [mA]; Cell Voltage 1 [mV] ; Cell Voltage 2 [mV] ; Max_Error [%] ; Busvoltage[mV] ; Battery Temperature [°C] ; Charger Temperature [°C] ; Batterysystem ; Case ; PLace
009625;10.12.2019;15:28:40;Charge to 30% ;03.12.2018;FEY;;LION;49;14500;7200;224;49;93;100;8400;;4131;4132;1;13014;22.34;25.24;27,1;BCS1388054;2;5
009625;10.12.2019;20:48:37;Stop          ;03.12.2018;FEY;;LION;49;14500;7200;192;50;29;30;8400;3000;3558;3558;1;13013;32.74;32.74;33,2;BCS1388054;2;5
009625;11.12.2019;08:48:24;Fastcharge    ;03.12.2018;FEY;;LION;49;14500;7200;192;50;29;30;8400;3000;3568;3568;1;13014;25.64;28.24;31,9;BCS1388054;2;5
009625;11.12.2019;13:39:47;Stop          ;03.12.2018;FEY;;LION;49;14500;7200;224;50;95;100;8400;;4164;4164;1;13013;29.04;30.14;32,5;BCS1388054;2;5
009625;11.12.2019;15:46:18;Charge to 10% ;03.12.2018;FEY;;LION;49;14500;7200;224;50;96;100;8400;;4153;4153;1;13014;26.44;28.44;31,4;BCS1388054;2;5
009625;11.12.2019;22:49:04;Stop          ;03.12.2018;FEY;;LION;49;14500;7200;192;51;10;10;8400;3000;3349;3349;1;13012;33.54;33.44;33,6;BCS1388054;2;5
009625;12.12.2019;08:44:52;Normalcharge  ;03.12.2018;FEY;;LION;49;14500;7200;192;51;9;9;8400;3000;3362;3362;1;13014;25.84;28.24;31,9;BCS1388054;2;5
009625;12.12.2019;16:40:06;Stop          ;03.12.2018;FEY;;LION;49;14500;7200;224;51;96;100;8400;;4162;4164;1;13014;28.34;29.64;31,7;BCS1388054;2;5
009625;13.12.2019;10:47:50;Charge to 10% ;03.12.2018;FEY;;LION;49;14500;7200;224;51;96;100;8400;;4148;4149;1;13013;25.84;28.44;32,0;BCS1388054;2;5
009625;13.12.2019;15:42:08;Cycle         ;03.12.2018;FEY;;LION;49;14500;7200;192;52;35;37;8400;3000;3503;3554;1;13576;32.24;36.54;34,6;BCS1388054;2;5
009625;13.12.2019;15:42:08;Stop          ;03.12.2018;FEY;;LION;49;14500;7200;192;52;35;37;8400;3000;3503;3554;1;13576;32.24;36.54;34,6;BCS1388054;2;5
009625;14.12.2019;22:48:51;Stop          ;03.12.2018;FEY;;LION;49;14500;7200;224;53;94;99;8400;;4152;4151;1;13014;25.94;28.34;32,0;BCS1388054;2;5
009625;16.12.2019;07:43:06;Charge to 10% ;03.12.2018;FEY;;LION;49;14500;7200;224;53;94;100;8400;;4146;4145;1;13015;25.54;27.84;31,9;BCS1388054;2;5
009625;16.12.2019;14:37:54;Stop          ;03.12.2018;FEY;;LION;49;14500;7200;192;55;10;10;8400;3000;3364;3363;1;13013;32.14;31.64;32,4;BCS1388054;2;5
009625;16.12.2019;14:44:03;Charge to 90% ;03.12.2018;FEY;;LION;49;14500;7200;192;55;10;10;8400;3000;3366;3366;1;13014;31.64;31.04;31,9;BCS1388054;2;5
009625;16.12.2019;20:51:09;Stop          ;03.12.2018;FEY;;LION;49;14500;7200;192;55;85;90;8400;3000;4060;4060;1;13015;30.84;30.74;31,6;BCS1388054;2;5
009625;17.12.2019;08:37:40;Fastcharge    ;03.12.2018;FEY;;LION;49;14500;7200;192;55;85;90;8400;3000;4048;4048;1;13014;25.64;28.14;31,6;BCS1388054;2;5
009625;17.12.2019;10:30:36;Stop          ;03.12.2018;FEY;;LION;49;14500;7200;224;55;95;100;8400;;4161;4161;1;13015;27.14;29.04;31,5;BCS1388054;2;5
009625;17.12.2019;13:38:22;Charge to 10% ;03.12.2018;FEY;;LION;49;14500;7200;224;55;95;100;8400;;4149;4150;1;13015;25.94;28.14;30,8;BCS1388054;2;5
009625;17.12.2019;20:36:00;Stop          ;03.12.2018;FEY;;LION;49;14500;7200;192;56;10;10;8400;3000;3364;3364;1;13013;33.34;32.94;33,6;BCS1388054;2;5
009625;18.12.2019;08:31:17;Fastcharge    ;03.12.2018;FEY;;LION;49;14500;7200;192;56;10;10;8400;3000;3373;3374;1;13015;25.74;28.14;31,6;BCS1388054;2;5
009625;18.12.2019;14:28:27;Stop          ;03.12.2018;FEY;;LION;49;14500;7200;224;56;95;100;8400;;4162;4164;1;13014;29.04;29.94;32,0;BCS1388054;2;5
009625;19.12.2019;08:23:50;Charge to 60% ;03.12.2018;FEY;;LION;49;14500;7200;224;56;96;100;8400;;4149;4150;1;13014;25.64;28.14;31,5;BCS1388054;2;5
009625;19.12.2019;11:32:11;Stop          ;03.12.2018;FEY;;LION;49;14500;7200;192;56;58;60;8400;3000;3769;3771;1;13013;33.24;33.34;34,0;BCS1388054;2;5
009625;19.12.2019;12:16:37;Cycle         ;03.12.2018;FEY;;LION;49;14500;7200;192;56;58;60;8400;3000;3780;3781;1;13013;29.74;30.24;32,7;BCS1388054;2;5
009625;20.12.2019;17:35:47;Stop          ;03.12.2018;FEY;;LION;49;14500;7200;224;57;94;100;8400;;4151;4151;1;13015;25.84;28.04;31,1;BCS1388054;2;5
009625;06.01.2020;06:34:42;Charge to 60% ;03.12.2018;FEY;;LION;49;14500;7200;192;57;93;98;8400;;4121;4121;1;13014;25.74;28.04;31,9;BCS1388054;2;5
009625;06.01.2020;09:32:11;Stop          ;03.12.2018;FEY;;LION;49;14500;7200;192;57;57;60;8400;3000;3773;3775;1;13014;32.44;32.54;33,2;BCS1388054;2;5
009625;06.01.2020;09:50:30;Fastcharge    ;03.12.2018;FEY;;LION;49;14500;7200;192;57;57;60;8400;3000;3781;3782;1;13015;30.94;30.94;32,7;BCS1388054;2;5
009625;06.01.2020;13:08:34;Stop          ;03.12.2018;FEY;;LION;49;14500;7200;224;57;95;100;8400;;4161;4159;1;13016;28.54;29.44;31,6;BCS1388054;2;5