File: V2/reader/Batterieverzeichnis_new/009606.txt
Serialnumber ; Date ; Time ; Action ; Date of Manufacture ; Manufacturer ; Battery Name ; Device-Chemistry ; Specification-Info ; Design-Capacity [mAh] ; Design-Voltage [mV] ; Battery Status ; Cycle Count ; SOC [%] ; Relativ SOC[%] ; Desired Voltage [mV]; Desired Current [mA]; Cell Voltage 1 [mV] ; Cell Voltage 2 [mV] ; Max_Error [%] ; Busvoltage[mV] ; Battery Temperature [°C] ; Charger Temperature [°C] ; Batterysystem ; Case ; PLace
009606;10.12.2019;15:29:01;Charge to 30% ;03.12.2018;FEY;;LION;49;14500;7200;224;50;94;100;8400;;4130;4129;1;13010;22.54;24.64;27,1;BCS1388054;5;4
009606;10.12.2019;20:48:54;Stop          ;03.12.2018;FEY;;LION;49;14500;7200;192;51;29;30;8400;3000;3560;3558;1;13007;33.04;32.74;33,1;BCS1388054;5;4
009606;11.12.2019;08:48:53;Fastcharge    ;03.12.2018;FEY;;LION;49;14500;7200;192;51;29;30;8400;3000;3569;3569;1;13008;26.44;28.14;31,9;BCS1388054;5;4
009606;11.12.2019;13:40:11;Stop          ;03.12.2018;FEY;;LION;49;14500;7200;224;51;95;100;8400;;4162;4162;1;13008;29.74;30.24;32,4;BCS1388054;5;4
009606;11.12.2019;15:46:40;Charge to 10% ;03.12.2018;FEY;;LION;49;14500;7200;224;51;97;100;8400;;4153;4153;1;13007;27.14;28.34;31,4;BCS1388054;5;4
009606;11.12.2019;22:49:07;Stop          ;03.12.2018;FEY;;LION;49;14500;7200;192;52;10;10;8400;3000;3349;3348;1;13006;33.94;33.94;33,5;BCS1388054;5;4
009606;12.12.2019;08:45:10;Normalcharge  ;03.12.2018;FEY;;LION;49;14500;7200;192;52;9;10;8400;3000;3363;3363;1;13007;26.64;28.24;31,7;BCS1388054;5;4
009606;12.12.2019;16:41:20;Stop          ;03.12.2018;FEY;;LION;49;14500;7200;224;52;96;100;8400;;4162;4162;1;13008;29.04;29.64;31,6;BCS1388054;5;4
009606;13.12.2019;10:48:05;Charge to 10% ;03.12.2018;FEY;;LION;49;14500;7200;224;52;97;100;8400;;4148;4148;1;13008;26.64;28.44;32,0;BCS1388054;5;4
009606;13.12.2019;15:40:55;Stop          ;03.12.2018;FEY;;LION;49;14500;7200;192;53;36;37;8400;3000;3505;3554;1;13510;32.44;37.34;34,6;BCS1388054;5;4
009606;13.12.2019;15:41:42;Cycle         ;03.12.2018;FEY;;LION;49;14500;7200;192;53;36;37;8400;3000;3586;3585;1;13006;32.44;35.04;34,5;BCS1388054;5;4
009606;14.12.2019;22:39:35;Stop          ;03.12.2018;FEY;;LION;49;14500;7200;224;54;93;99;8400;;4151;4150;1;13007;26.64;28.24;31,7;BCS1388054;5;4
009606;16.12.2019;07:43:20;Charge to 10% ;03.12.2018;FEY;;LION;49;14500;7200;224;54;94;100;8400;;4145;4144;1;13008;26.44;27.34;31,9;BCS1388054;5;4
009606;16.12.2019;14:34:29;Stop          ;03.12.2018;FEY;;LION;49;14500;7200;192;55;10;10;8400;3000;3363;3363;1;13007;32.24;32.34;32,5;BCS1388054;5;4
009606;16.12.2019;14:44:17;Charge to 90% ;03.12.2018;FEY;;LION;49;14500;7200;192;55;10;10;8400;3000;3368;3367;1;13008;31.64;30.44;31,9;BCS1388054;5;4
009606;16.12.2019;20:48:55;Stop          ;03.12.2018;FEY;;LION;49;14500;7200;192;55;85;90;8400;3000;4059;4060;1;13007;31.54;31.44;31,9;BCS1388054;5;4
009606;17.12.2019;08:37:53;Fastcharge    ;03.12.2018;FEY;;LION;49;14500;7200;192;55;85;90;8400;3000;4046;4046;1;13008;26.54;28.14;31,6;BCS1388054;5;4
009606;17.12.2019;10:33:46;Stop          ;03.12.2018;FEY;;LION;49;14500;7200;224;55;95;100;8400;;4160;4162;1;13009;28.04;28.84;31,1;BCS1388054;5;4
009606;17.12.2019;10:33:46;Stop          ;03.12.2018;FEY;;LION;49;14500;7200;224;55;95;100;8400;;4160;4162;1;13009;28.04;28.84;31,1;BCS1388054;5;4
009606;17.12.2019;13:38:36;Charge to 10% ;03.12.2018;FEY;;LION;49;14500;7200;224;55;95;100;8400;;4149;4150;1;13007;26.74;27.94;30,8;BCS1388054;5;4
009606;17.12.2019;20:33:18;Stop          ;03.12.2018;FEY;;LION;49;14500;7200;192;56;10;10;8400;3000;3361;3361;1;13007;33.84;33.84;34,5;BCS1388054;5;4
009606;18.12.2019;08:31:30;Fastcharge    ;03.12.2018;FEY;;LION;49;14500;7200;192;56;10;10;8400;3000;3373;3373;1;13008;26.64;28.14;31,6;BCS1388054;5;4
009606;18.12.2019;14:29:27;Stop          ;03.12.2018;FEY;;LION;49;14500;7200;224;56;95;100;8400;;4161;4163;1;13008;29.74;29.94;31,7;BCS1388054;5;4
009606;19.12.2019;08:24:02;Charge to 60% ;03.12.2018;FEY;;LION;49;14500;7200;224;56;96;100;8400;;4148;4150;1;13008;26.54;28.14;31,5;BCS1388054;5;4
009606;19.12.2019;11:31:09;Stop          ;03.12.2018;FEY;;LION;49;14500;7200;192;57;58;60;8400;3000;3769;3769;1;13006;33.64;33.54;34,4;BCS1388054;5;4
009606;19.12.2019;12:16:49;Cycle         ;03.12.2018;FEY;;LION;49;14500;7200;192;57;58;60;8400;3000;3780;3780;1;13008;30.24;30.24;32,7;BCS1388054;5;4
009606;20.12.2019;17:27:50;Stop          ;03.12.2018;FEY;;LION;49;14500;7200;224;58;94;100;8400;;4151;4150;1;13008;26.84;28.04;31,0;BCS1388054;5;4
009606;06.01.2020;06:34:55;Charge to 60% ;03.12.2018;FEY;;LION;49;14500;7200;224;58;93;99;8400;;4122;4121;1;13007;26.84;28.34;31,9;BCS1388054;5;4
009606;06.01.2020;09:30:26;Stop          ;03.12.2018;FEY;;LION;49;14500;7200;192;58;57;60;8400;3000;3766;3764;1;13007;32.94;33.44;33,9;BCS1388054;5;4
009606;06.01.2020;09:50:42;Fastcharge    ;03.12.2018;FEY;;LION;49;14500;7200;192;58;57;60;8400;3000;3778;3776;1;13008;31.44;30.84;32,7;BCS1388054;5;4
009606;06.01.2020;13:09:56;Stop          ;03.12.2018;FEY;;LION;49;14500;7200;224;58;94;100;8400;;4163;4164;1;13008;29.34;29.54;31,4;BCS1388054;5;4