File: V2/reader/Batterieverzeichnis_new/009622.txt
Serialnumber ; Date ; Time ; Action ; Date of Manufacture ; Manufacturer ; Battery Name ; Device-Chemistry ; Specification-Info ; Design-Capacity [mAh] ; Design-Voltage [mV] ; Battery Status ; Cycle Count ; SOC [%] ; Relativ SOC[%] ; Desired Voltage [mV]; Desired Current [mA]; Cell Voltage 1 [mV] ; Cell Voltage 2 [mV] ; Max_Error [%] ; Busvoltage[mV] ; Battery Temperature [°C] ; Charger Temperature [°C] ; Batterysystem ; Case ; PLace
009622;10.12.2019;15:29:09;Charge to 30% ;04.12.2018;FEY;;LION;49;14500;7200;224;28;93;99;8400;;4120;4121;1;13021;22.44;24.44;27,1;BCS1388054;6;4
009622;10.12.2019;20:46:41;Stop          ;04.12.2018;FEY;;LION;49;14500;7200;192;29;29;30;8400;3000;3557;3559;1;13018;32.34;31.84;33,6;BCS1388054;6;4
009622;11.12.2019;08:49:03;Fastcharge    ;04.12.2018;FEY;;LION;49;14500;7200;192;29;29;30;8400;3000;3567;3568;1;13018;26.14;27.24;31,9;BCS1388054;6;4
009622;11.12.2019;13:39:30;Stop          ;04.12.2018;FEY;;LION;49;14500;7200;224;29;95;100;8400;;4162;4164;1;13018;29.24;29.14;32,5;BCS1388054;6;4
009622;11.12.2019;15:46:47;Charge to 10% ;04.12.2018;FEY;;LION;49;14500;7200;224;29;97;100;8400;;4155;4156;1;13019;26.84;27.34;31,4;BCS1388054;6;4
009622;11.12.2019;22:52:10;Stop          ;04.12.2018;FEY;;LION;49;14500;7200;192;30;10;10;8400;3000;3353;3354;1;13017;33.04;31.54;33,0;BCS1388054;6;4
009622;12.12.2019;08:45:18;Normalcharge  ;04.12.2018;FEY;;LION;49;14500;7200;192;30;9;9;8400;3000;3363;3364;1;13018;26.34;27.34;31,7;BCS1388054;6;4
009622;12.12.2019;16:41:29;Stop          ;04.12.2018;FEY;;LION;49;14500;7200;224;30;96;100;8400;;4163;4163;1;13019;28.54;28.44;31,5;BCS1388054;6;4
009622;13.12.2019;10:48:09;Charge to 10% ;04.12.2018;FEY;;LION;49;14500;7200;224;30;96;100;8400;;4151;4151;1;13018;26.34;27.54;32,0;BCS1388054;6;4
009622;13.12.2019;13:51:54;Stop          ;04.12.2018;FEY;;LION;49;14500;7200;192;31;58;61;8400;3000;3681;3734;1;13499;33.64;37.94;36,1;BCS1388054;6;4
009622;13.12.2019;13:53:13;Fastcharge    ;04.12.2018;FEY;;LION;49;14500;7200;192;31;58;61;8400;3000;3767;3768;1;13016;33.64;35.64;35,8;BCS1388054;6;4
009622;13.12.2019;13:53:19;Stop          ;04.12.2018;FEY;;LION;49;14500;7200;192;31;58;61;8400;3000;3768;3769;1;13006;33.64;35.44;35,8;BCS1388054;6;4
009622;13.12.2019;13:53:25;Normalcharge  ;04.12.2018;FEY;;LION;49;14500;7200;192;31;58;61;8400;3000;3768;3769;1;13015;33.64;35.34;35,8;BCS1388054;6;4
009622;13.12.2019;20:04:59;Stop          ;04.12.2018;FEY;;LION;49;14500;7200;224;31;96;100;8400;;4154;4155;1;13019;27.54;28.24;32,0;BCS1388054;6;4
009622;16.12.2019;07:43:27;Charge to 10% ;04.12.2018;FEY;;LION;49;14500;7200;224;31;96;100;8400;;4146;4146;1;13020;26.14;26.14;31,7;BCS1388054;6;4
009622;16.12.2019;14:43:10;Stop          ;04.12.2018;FEY;;LION;49;14500;7200;192;32;10;10;8400;3000;3352;3353;1;13018;31.14;29.74;31,7;BCS1388054;6;4
009622;16.12.2019;14:44:21;Charge to 90% ;04.12.2018;FEY;;LION;49;14500;7200;192;32;10;10;8400;3000;3354;3354;1;13018;31.04;29.44;31,9;BCS1388054;6;4
009622;16.12.2019;20:54:26;Stop          ;04.12.2018;FEY;;LION;49;14500;7200;192;32;86;90;8400;3000;4053;4054;1;13019;31.04;30.24;32,1;BCS1388054;6;4
009622;17.12.2019;08:37:57;Fastcharge    ;04.12.2018;FEY;;LION;49;14500;7200;192;32;86;90;8400;3000;4041;4042;1;13018;26.14;27.24;31,6;BCS1388054;6;4
009622;17.12.2019;13:38:40;Charge to 10% ;04.12.2018;FEY;;LION;49;14500;7200;224;32;96;100;8400;;4153;4153;1;13020;26.44;27.14;30,8;BCS1388054;6;4
009622;17.12.2019;20:41:40;Stop          ;04.12.2018;FEY;;LION;49;14500;7200;192;33;10;10;8400;3000;3352;3353;1;13018;33.04;31.54;32,6;BCS1388054;6;4
009622;18.12.2019;08:31:34;Fastcharge    ;04.12.2018;FEY;;LION;49;14500;7200;192;33;9;9;8400;3000;3363;3364;1;13019;26.34;27.14;31,6;BCS1388054;6;4
009622;18.12.2019;14:33:31;Stop          ;04.12.2018;FEY;;LION;49;14500;7200;224;33;95;100;8400;;4162;4162;1;13019;29.24;28.54;31,4;BCS1388054;6;4
009622;19.12.2019;08:24:06;Charge to 60% ;04.12.2018;FEY;;LION;49;14500;7200;224;33;96;100;8400;;4151;4151;1;13019;26.24;27.24;31,5;BCS1388054;6;4
009622;19.12.2019;11:34:24;Stop          ;04.12.2018;FEY;;LION;49;14500;7200;192;34;58;60;8400;3000;3772;3773;1;13019;32.74;31.54;33,5;BCS1388054;6;4
009622;19.12.2019;12:16:53;Cycle         ;04.12.2018;FEY;;LION;49;14500;7200;192;34;58;60;8400;3000;3781;3782;1;13019;29.74;29.04;32,7;BCS1388054;6;4
009622;20.12.2019;17:31:05;Stop          ;04.12.2018;FEY;;LION;49;14500;7200;224;35;94;100;8400;;4153;4154;1;13021;26.44;27.04;30,6;BCS1388054;6;4
009622;06.01.2020;06:34:58;Charge to 60% ;04.12.2018;FEY;;LION;49;14500;7200;192;35;93;98;8400;;4122;4123;1;13021;26.44;27.34;31,9;BCS1388054;6;4
009622;06.01.2020;09:30:42;Stop          ;04.12.2018;FEY;;LION;49;14500;7200;192;35;57;60;8400;3000;3760;3761;1;13020;32.24;33.04;33,7;BCS1388054;6;4
009622;06.01.2020;09:50:46;Fastcharge    ;04.12.2018;FEY;;LION;49;14500;7200;192;35;57;60;8400;3000;3776;3778;1;13020;30.74;29.64;32,7;BCS1388054;6;4
009622;06.01.2020;13:06:22;Stop          ;04.12.2018;FEY;;LION;49;14500;7200;224;35;95;100;8400;;4164;4164;1;13020;28.94;28.94;32,1;BCS1388054;6;4
009622;06.01.2020;09:50:46;Fastcharge    ;04.12.2018;FEY;;LION;49;14500;7200;192;35;57;60;8400;3000;3776;3778;1;13020;30.74;29.64;32,7;BCS1388054;6;4
009622;06.01.2020;13:06:22;Stop          ;04.12.2018;FEY;;LION;49;14500;7200;224;35;95;100;8400;;4164;4164;1;13020;28.94;28.94;32,1;BCS1388054;6;4