File: V2/reader/Batterieverzeichnis_new/009619.txt
Serialnumber ; Date ; Time ; Action ; Date of Manufacture ; Manufacturer ; Battery Name ; Device-Chemistry ; Specification-Info ; Design-Capacity [mAh] ; Design-Voltage [mV] ; Battery Status ; Cycle Count ; SOC [%] ; Relativ SOC[%] ; Desired Voltage [mV]; Desired Current [mA]; Cell Voltage 1 [mV] ; Cell Voltage 2 [mV] ; Max_Error [%] ; Busvoltage[mV] ; Battery Temperature [°C] ; Charger Temperature [°C] ; Batterysystem ; Case ; PLace
009619;10.12.2019;15:28:47;Ladung auf 30% ;04.12.2018;FEY;;LION;49;14500;7200;224;53;92;100;8400;;4131;4131;1;13012;22.44;24.54;27,1;BCS1388054;3;10
009619;10.12.2019;20:47:21;Stop           ;04.12.2018;FEY;;LION;49;14500;7200;192;54;28;30;8400;3000;3560;3560;1;13008;33.64;33.74;33,5;BCS1388054;3;10
009619;11.12.2019;08:48:36;Fastcharge    ;04.12.2018;FEY;;LION;49;14500;7200;192;54;28;30;8400;3000;3568;3568;1;13010;26.14;27.84;31,9;BCS1388054;3;10
009619;11.12.2019;13:39:41;Stop           ;04.12.2018;FEY;;LION;49;14500;7200;224;54;93;100;8400;;4159;4160;1;13010;30.24;30.44;32,5;BCS1388054;3;10
009619;11.12.2019;15:46:24;Ladung auf 10% ;04.12.2018;FEY;;LION;49;14500;7200;224;54;95;100;8400;;4152;4153;1;13009;27.04;28.34;31,4;BCS1388054;3;10
009619;11.12.2019;22:48:44;Stop           ;04.12.2018;FEY;;LION;49;14500;7200;192;55;10;10;8400;3000;3355;3355;1;13009;34.34;34.04;33,6;BCS1388054;3;10
009619;12.12.2019;08:44:58;Normalcharge  ;04.12.2018;FEY;;LION;49;14500;7200;192;55;9;10;8400;3000;3363;3364;1;13010;26.34;28.04;31,9;BCS1388054;3;10
009619;12.12.2019;16:39:24;Stop           ;04.12.2018;FEY;;LION;49;14500;7200;224;55;95;100;8400;;4159;4159;1;13011;29.34;29.94;31,7;BCS1388054;3;10
009619;13.12.2019;10:47:57;Ladung auf 10% ;04.12.2018;FEY;;LION;49;14500;7200;224;55;94;100;8400;;4148;4148;1;13010;26.34;28.04;32,0;BCS1388054;3;10
009619;13.12.2019;15:42:18;Stop           ;04.12.2018;FEY;;LION;49;14500;7200;192;56;33;35;8400;3000;3494;3546;1;13550;33.34;38.54;34,6;BCS1388054;3;10
009619;13.12.2019;15:42:20;Cycle          ;04.12.2018;FEY;;LION;49;14500;7200;192;56;33;35;8400;3000;3494;3546;1;13009;33.34;38.54;34,6;BCS1388054;3;10
009619;14.12.2019;22:36:33;Stop           ;04.12.2018;FEY;;LION;49;14500;7200;224;57;92;99;8400;;4152;4153;1;13011;26.54;27.94;31,6;BCS1388054;3;10
009619;16.12.2019;07:43:10;Ladung auf 10% ;04.12.2018;FEY;;LION;49;14500;7200;224;57;92;100;8400;;4147;4147;1;13011;26.04;27.34;31,9;BCS1388054;3;10
009619;16.12.2019;14:34:27;Stop           ;04.12.2018;FEY;;LION;49;14500;7200;192;58;10;10;8400;3000;3367;3368;1;13010;32.94;32.84;32,5;BCS1388054;3;10
009619;16.12.2019;14:44:07;Ladung auf 90% ;04.12.2018;FEY;;LION;49;14500;7200;192;58;10;10;8400;3000;3368;3369;1;13011;32.24;31.54;31,7;BCS1388054;3;10
009619;16.12.2019;20:48:39;Stop           ;04.12.2018;FEY;;LION;49;14500;7200;192;58;83;90;8400;3000;4056;4057;1;13012;31.94;31.84;31,9;BCS1388054;3;10
009619;17.12.2019;08:37:44;Fastcharge    ;04.12.2018;FEY;;LION;49;14500;7200;192;58;83;90;8400;3000;4048;4048;1;13011;26.14;27.74;31,5;BCS1388054;3;10
009619;17.12.2019;10:30:44;Stop           ;04.12.2018;FEY;;LION;49;14500;7200;224;58;93;100;8400;;4159;4159;1;13010;27.94;29.24;31,4;BCS1388054;3;10
009619;17.12.2019;13:38:28;Ladung auf 10% ;04.12.2018;FEY;;LION;49;14500;7200;224;58;93;100;8400;;4149;4148;1;13011;26.54;27.94;30,8;BCS1388054;3;10
009619;17.12.2019;20:32:04;Stop           ;04.12.2018;FEY;;LION;49;14500;7200;192;59;10;10;8400;3000;3367;3368;1;13010;34.34;34.24;34,6;BCS1388054;3;10
009619;18.12.2019;08:31:22;Fastcharge    ;04.12.2018;FEY;;LION;49;14500;7200;192;59;10;11;8400;3000;3375;3376;1;13011;26.24;27.94;31,6;BCS1388054;3;10
009619;18.12.2019;14:26:33;Stop           ;04.12.2018;FEY;;LION;49;14500;7200;224;59;94;100;8400;;4159;4157;1;13011;30.34;30.54;32,5;BCS1388054;3;10
009619;19.12.2019;08:23:54;Ladung auf 60% ;04.12.2018;FEY;;LION;49;14500;7200;224;59;94;100;8400;;4148;4147;1;13010;26.14;27.84;31,6;BCS1388054;3;10
009619;19.12.2019;11:28:29;Stop           ;04.12.2018;FEY;;LION;49;14500;7200;192;60;57;60;8400;3000;3764;3763;1;13009;34.34;35.34;35,1;BCS1388054;3;10
009619;19.12.2019;12:16:41;Cycle          ;04.12.2018;FEY;;LION;49;14500;7200;192;60;57;60;8400;3000;3774;3774;1;13011;30.84;30.44;32,7;BCS1388054;3;10
009619;20.12.2019;17:23:28;Stop           ;04.12.2018;FEY;;LION;49;14500;7200;224;61;92;99;8400;;4152;4152;1;13010;26.64;28.04;31,9;BCS1388054;3;10
009619;06.01.2020;06:34:46;Ladung auf 60% ;04.12.2018;FEY;;LION;49;14500;7200;192;61;91;98;8400;;4123;4123;1;13011;26.24;27.84;31,9;BCS1388054;3;10
009619;06.01.2020;09:29:20;Stop           ;04.12.2018;FEY;;LION;49;14500;7200;192;62;56;60;8400;3000;3772;3772;1;13011;33.44;34.14;34,2;BCS1388054;3;10
009619;06.01.2020;09:50:34;Fastcharge    ;04.12.2018;FEY;;LION;49;14500;7200;192;62;56;60;8400;3000;3779;3780;1;13011;31.84;31.24;32,7;BCS1388054;3;10
009619;06.01.2020;13:06:26;Stop           ;04.12.2018;FEY;;LION;49;14500;7200;224;62;93;100;8400;;4160;4161;1;13011;29.84;30.24;32,1;BCS1388054;3;10