File: V2/reader/Batterieverzeichnis_new/009643.txt
Serialnumber ; Date ; Time ; Action ; Date of Manufacture ; Manufacturer ; Battery Name ; Device-Chemistry ; Specification-Info ; Design-Capacity [mAh] ; Design-Voltage [mV] ; Battery Status ; Cycle Count ; SOC [%] ; Relativ SOC[%] ; Desired Voltage [mV]; Desired Current [mA]; Cell Voltage 1 [mV] ; Cell Voltage 2 [mV] ; Max_Error [%] ; Busvoltage[mV] ; Battery Temperature [°C] ; Charger Temperature [°C] ; Batterysystem ; Case ; PLace
009643;10.12.2019;15:28:34;Charge to 30% ;03.12.2018;FEY;;LION;49;14500;7200;192;48;92;98;8400;;4108;4108;1;13007;23.24;25.94;27,1;BCS1388054;1;18
009643;10.12.2019;20:42:17;Stop          ;03.12.2018;FEY;;LION;49;14500;7200;192;49;29;30;8400;3000;3557;3555;1;13005;31.14;34.64;34,1;BCS1388054;1;18
009643;11.12.2019;08:48:18;Fastcharge    ;03.12.2018;FEY;;LION;49;14500;7200;192;49;29;30;8400;3000;3568;3567;1;13007;25.64;27.44;31,9;BCS1388054;1;18
009643;11.12.2019;13:40:21;Stop          ;03.12.2018;FEY;;LION;49;14500;7200;224;49;95;100;8400;;4161;4162;1;13006;27.74;30.14;32,4;BCS1388054;1;18
009643;11.12.2019;15:45:57;Charge to 30% ;03.12.2018;FEY;;LION;49;14500;7200;224;49;96;100;8400;;4152;4152;1;13006;26.14;27.84;31,5;BCS1388054;1;18
009643;11.12.2019;15:46:00;Stop          ;03.12.2018;FEY;;LION;49;14500;7200;224;49;96;100;8400;;4152;4152;1;13006;26.14;27.84;31,5;BCS1388054;1;18
009643;11.12.2019;15:46:13;Charge to 10% ;03.12.2018;FEY;;LION;49;14500;7200;224;49;96;100;8400;;4151;4152;1;13006;26.14;27.84;31,5;BCS1388054;1;18
009643;11.12.2019;22:50:20;Stop          ;03.12.2018;FEY;;LION;49;14500;7200;192;50;10;10;8400;3000;3351;3351;1;13005;31.34;33.34;33,4;BCS1388054;1;18
009643;12.12.2019;08:44:40;Normalcharge  ;03.12.2018;FEY;;LION;49;14500;7200;192;50;9;10;8400;3000;3362;3362;1;13006;25.84;27.64;31,9;BCS1388054;1;18
009643;12.12.2019;16:39:22;Stop          ;03.12.2018;FEY;;LION;49;14500;7200;224;50;96;100;8400;;4162;4163;1;13006;27.44;29.74;31,7;BCS1388054;1;18
009643;13.12.2019;10:47:47;Charge to 10% ;03.12.2018;FEY;;LION;49;14500;7200;224;50;96;100;8400;;4147;4147;1;13006;25.84;27.64;32,0;BCS1388054;1;18
009643;13.12.2019;15:41:58;Stop          ;03.12.2018;FEY;;LION;49;14500;7200;192;51;35;37;8400;3000;3502;3552;1;13650;30.64;39.44;34,6;BCS1388054;1;18
009643;13.12.2019;15:42:01;Cycle         ;03.12.2018;FEY;;LION;49;14500;7200;192;51;35;37;8400;3000;3502;3552;1;13004;30.64;39.34;34,6;BCS1388054;1;18
009643;14.12.2019;22:41:25;Stop          ;03.12.2018;FEY;;LION;49;14500;7200;224;52;93;99;8400;;4150;4149;1;13008;25.74;27.54;31,9;BCS1388054;1;18
009643;16.12.2019;07:43:03;Charge to 10% ;03.12.2018;FEY;;LION;49;14500;7200;224;52;94;100;8400;;4145;4144;1;13006;25.44;27.04;31,9;BCS1388054;1;18
009643;16.12.2019;14:36:13;Stop          ;03.12.2018;FEY;;LION;49;14500;7200;192;53;10;10;8400;3000;3364;3363;1;13005;30.24;32.64;32,4;BCS1388054;1;18
009643;16.12.2019;14:44:00;Charge to 90% ;03.12.2018;FEY;;LION;49;14500;7200;192;53;10;10;8400;3000;3367;3366;1;13006;29.54;30.54;31,7;BCS1388054;1;18
009643;16.12.2019;20:50:03;Stop          ;03.12.2018;FEY;;LION;49;14500;7200;192;53;85;90;8400;3000;4057;4057;1;13007;29.24;31.64;31,7;BCS1388054;1;18
009643;17.12.2019;08:37:37;Fastcharge    ;03.12.2018;FEY;;LION;49;14500;7200;192;53;85;90;8400;3000;4046;4046;1;13006;25.54;27.34;31,6;BCS1388054;1;18
009643;17.12.2019;10:31:11;Stop          ;03.12.2018;FEY;;LION;49;14500;7200;224;53;95;100;8400;;4160;4162;1;13005;26.74;28.74;31,4;BCS1388054;1;18
009643;17.12.2019;13:38:19;Charge to 10% ;03.12.2018;FEY;;LION;49;14500;7200;224;53;95;100;8400;;4149;4150;1;13006;25.74;27.34;30,8;BCS1388054;1;18
009643;17.12.2019;20:33:50;Stop          ;03.12.2018;FEY;;LION;49;14500;7200;192;55;10;10;8400;3000;3361;3361;1;13006;31.44;33.94;34,2;BCS1388054;1;18
009643;18.12.2019;08:31:14;Fastcharge    ;03.12.2018;FEY;;LION;49;14500;7200;192;55;10;10;8400;3000;3373;3373;1;13006;25.84;27.54;31,6;BCS1388054;1;18
009643;18.12.2019;14:28:33;Stop          ;03.12.2018;FEY;;LION;49;14500;7200;224;55;95;100;8400;;4161;4164;1;13006;27.84;29.94;31,9;BCS1388054;1;18
009643;19.12.2019;08:23:45;Charge to 60% ;03.12.2018;FEY;;LION;49;14500;7200;224;55;96;100;8400;;4147;4150;1;13007;25.54;27.44;31,5;BCS1388054;1;18
009643;19.12.2019;11:29:32;Stop          ;03.12.2018;FEY;;LION;49;14500;7200;192;55;58;60;8400;3000;3767;3768;1;13005;31.64;35.64;34,9;BCS1388054;1;18
009643;19.12.2019;12:16:33;Cycle         ;03.12.2018;FEY;;LION;49;14500;7200;192;55;58;60;8400;3000;3781;3782;1;13006;27.94;29.44;32,7;BCS1388054;1;18
009643;20.12.2019;17:26:19;Stop          ;03.12.2018;FEY;;LION;49;14500;7200;224;56;94;100;8400;;4150;4151;1;13007;25.74;27.44;31,2;BCS1388054;1;18
009643;06.01.2020;06:34:38;Charge to 60% ;03.12.2018;FEY;;LION;49;14500;7200;192;56;92;98;8400;;4122;4122;1;13007;25.74;27.34;31,9;BCS1388054;1;18
009643;06.01.2020;09:30:30;Stop          ;03.12.2018;FEY;;LION;49;14500;7200;192;57;57;60;8400;3000;3773;3772;1;13005;30.84;33.74;33,9;BCS1388054;1;18
009643;06.01.2020;09:50:27;Fastcharge    ;03.12.2018;FEY;;LION;49;14500;7200;192;57;57;60;8400;3000;3783;3783;1;13006;28.94;30.14;32,6;BCS1388054;1;18
009643;06.01.2020;13:07:36;Stop          ;03.12.2018;FEY;;LION;49;14500;7200;224;57;94;100;8400;;4160;4161;1;13007;27.44;29.74;31,7;BCS1388054;1;18