File: V2/reader/Batterieverzeichnis_new/009605.txt
Serialnumber ; Date ; Time ; Action ; Date of Manufacture ; Manufacturer ; Battery Name ; Device-Chemistry ; Specification-Info ; Design-Capacity [mAh] ; Design-Voltage [mV] ; Battery Status ; Cycle Count ; SOC [%] ; Relativ SOC[%] ; Desired Voltage [mV]; Desired Current [mA]; Cell Voltage 1 [mV] ; Cell Voltage 2 [mV] ; Max_Error [%] ; Busvoltage[mV] ; Battery Temperature [°C] ; Charger Temperature [°C] ; Batterysystem ; Case ; PLace
009605;10.12.2019;15:28:47;Ladung auf 30% ;04.12.2018;FEY;;LION;49;14500;7200;224;54;93;100;8400;;4130;4129;1;13020;22.64;24.64;27,1;BCS1388054;3;3
009605;10.12.2019;20:47:21;Stop           ;04.12.2018;FEY;;LION;49;14500;7200;192;55;29;30;8400;3000;3557;3557;1;13017;33.84;34.44;33,5;BCS1388054;3;3
009605;11.12.2019;08:48:36;Fastcharge    ;04.12.2018;FEY;;LION;49;14500;7200;192;55;29;30;8400;3000;3567;3568;1;13019;26.34;28.24;31,9;BCS1388054;3;3
009605;11.12.2019;13:39:41;Stop           ;04.12.2018;FEY;;LION;49;14500;7200;224;55;94;100;8400;;4164;4164;1;13019;30.44;31.14;32,5;BCS1388054;3;3
009605;11.12.2019;15:46:24;Ladung auf 10% ;04.12.2018;FEY;;LION;49;14500;7200;224;55;96;100;8400;;4153;4153;1;13018;27.24;28.74;31,4;BCS1388054;3;3
009605;11.12.2019;22:48:44;Stop           ;04.12.2018;FEY;;LION;49;14500;7200;192;56;10;10;8400;3000;3352;3353;1;13018;34.54;34.54;33,6;BCS1388054;3;3
009605;12.12.2019;08:44:58;Normalcharge  ;04.12.2018;FEY;;LION;49;14500;7200;192;56;9;10;8400;3000;3363;3364;1;13018;26.54;28.44;31,9;BCS1388054;3;3
009605;12.12.2019;16:39:24;Stop           ;04.12.2018;FEY;;LION;49;14500;7200;224;56;96;100;8400;;4163;4164;1;13019;29.44;30.54;31,7;BCS1388054;3;3
009605;13.12.2019;10:47:57;Ladung auf 10% ;04.12.2018;FEY;;LION;49;14500;7200;224;56;96;100;8400;;4148;4148;1;13019;26.54;28.44;32,0;BCS1388054;3;3
009605;13.12.2019;15:42:18;Stop           ;04.12.2018;FEY;;LION;49;14500;7200;192;57;35;36;8400;3000;3502;3554;1;13555;33.24;38.54;34,6;BCS1388054;3;3
009605;13.12.2019;15:42:20;Cycle          ;04.12.2018;FEY;;LION;49;14500;7200;192;57;35;36;8400;3000;3502;3554;1;13555;33.24;38.54;34,6;BCS1388054;3;3
009605;14.12.2019;22:36:33;Stop           ;04.12.2018;FEY;;LION;49;14500;7200;224;58;93;99;8400;;4151;4151;1;13020;26.74;28.34;31,6;BCS1388054;3;3
009605;16.12.2019;07:43:10;Ladung auf 10% ;04.12.2018;FEY;;LION;49;14500;7200;224;58;94;100;8400;;4145;4145;1;13020;26.24;27.84;31,9;BCS1388054;3;3
009605;16.12.2019;14:34:27;Stop           ;04.12.2018;FEY;;LION;49;14500;7200;192;59;10;10;8400;3000;3360;3361;1;13018;33.24;33.84;32,5;BCS1388054;3;3
009605;16.12.2019;14:44:07;Ladung auf 90% ;04.12.2018;FEY;;LION;49;14500;7200;192;59;10;10;8400;3000;3364;3366;1;13019;32.54;31.74;31,7;BCS1388054;3;3
009605;16.12.2019;20:48:39;Stop           ;04.12.2018;FEY;;LION;49;14500;7200;192;59;84;90;8400;3000;4060;4061;1;13019;32.14;32.64;31,9;BCS1388054;3;3
009605;17.12.2019;08:37:44;Fastcharge    ;04.12.2018;FEY;;LION;49;14500;7200;192;59;84;90;8400;3000;4045;4046;1;13020;26.34;28.14;31,5;BCS1388054;3;3
009605;17.12.2019;10:30:44;Stop           ;04.12.2018;FEY;;LION;49;14500;7200;224;59;95;100;8400;;4163;4163;1;13018;28.04;30.04;31,4;BCS1388054;3;3
009605;17.12.2019;13:38:28;Ladung auf 10% ;04.12.2018;FEY;;LION;49;14500;7200;224;59;95;100;8400;;4149;4149;1;13020;26.74;28.34;30,8;BCS1388054;3;3
009605;17.12.2019;20:32:04;Stop           ;04.12.2018;FEY;;LION;49;14500;7200;192;60;10;10;8400;3000;3358;3360;1;13019;34.64;35.24;34,6;BCS1388054;3;3
009605;18.12.2019;08:31:22;Fastcharge    ;04.12.2018;FEY;;LION;49;14500;7200;192;60;10;10;8400;3000;3371;3372;1;13020;26.44;28.44;31,6;BCS1388054;3;3
009605;18.12.2019;14:26:33;Stop           ;04.12.2018;FEY;;LION;49;14500;7200;224;60;94;100;8400;;4163;4163;1;13019;30.44;31.24;32,5;BCS1388054;3;3
009605;19.12.2019;08:23:54;Ladung auf 60% ;04.12.2018;FEY;;LION;49;14500;7200;224;60;96;100;8400;;4148;4148;1;13019;26.44;28.14;31,6;BCS1388054;3;3
009605;19.12.2019;11:28:29;Stop           ;04.12.2018;FEY;;LION;49;14500;7200;192;61;58;60;8400;3000;3756;3757;1;13018;34.44;38.04;35,1;BCS1388054;3;3
009605;19.12.2019;12:16:41;Cycle          ;04.12.2018;FEY;;LION;49;14500;7200;192;61;58;60;8400;3000;3777;3779;1;13020;30.94;30.74;32,7;BCS1388054;3;3
009605;20.12.2019;17:23:28;Stop           ;04.12.2018;FEY;;LION;49;14500;7200;224;62;93;100;8400;;4151;4151;1;13020;26.84;28.44;31,9;BCS1388054;3;3
009605;06.01.2020;06:34:46;Ladung auf 60% ;04.12.2018;FEY;;LION;49;14500;7200;192;62;92;98;8400;;4121;4121;1;13020;26.44;28.24;31,9;BCS1388054;3;3
009605;06.01.2020;09:29:20;Stop           ;04.12.2018;FEY;;LION;49;14500;7200;192;62;57;60;8400;3000;3773;3775;1;13020;33.44;34.54;34,2;BCS1388054;3;3
009605;06.01.2020;09:50:34;Fastcharge    ;04.12.2018;FEY;;LION;49;14500;7200;192;62;57;60;8400;3000;3783;3785;1;13020;32.04;31.44;32,7;BCS1388054;3;3
009605;06.01.2020;13:06:26;Stop           ;04.12.2018;FEY;;LION;49;14500;7200;224;62;94;100;8400;;4161;4161;1;13021;29.94;30.54;32,1;BCS1388054;3;3