File: reader/backup_20210405/Batterieverzeichnis/001014.txt
Serialnumber ; Date ; Time ; Action ; Date of Manufacture ; Manufacturer ; Battery Name ; Device-Chemistry ; Specification-Info ; Design-Capacity [mAh] ; Design-Voltage [mV] ; Battery Status ; Cycle Count ; SOC [%] ; Relativ SOC[%] ; Desired Voltage [mV]; Desired Current [mA]; Cell Voltage 1 [mV] ; Cell Voltage 2 [mV] ; Max_Error [%] ; Busvoltage[mV] ; Battery Temperature [°C] ; Charger Temperature [°C] ; Batterysystem ; Case ; PLace
001014;10.12.2019;15:29:09;Charge to 30% ;28.11.2017;FEY;;LION;49;14500;7200;224;30;91;99;8400;;4120;4119;1;12994;22.54;24.04;27,1;BCS1388054;6;16
001014;10.12.2019;20:46:41;Stop          ;28.11.2017;FEY;;LION;49;14500;7200;192;31;28;30;8400;3000;3559;3556;1;12992;33.24;32.54;33,6;BCS1388054;6;16
001014;11.12.2019;08:49:03;Fastcharge    ;28.11.2017;FEY;;LION;49;14500;7200;192;31;28;30;8400;3000;3564;3562;1;12992;26.34;27.04;31,9;BCS1388054;6;16
001014;11.12.2019;13:39:30;Stop          ;28.11.2017;FEY;;LION;49;14500;7200;224;31;93;100;8400;;4161;4161;1;12992;30.44;29.24;32,5;BCS1388054;6;16
001014;11.12.2019;15:46:47;Charge to 10% ;28.11.2017;FEY;;LION;49;14500;7200;224;31;94;100;8400;;4154;4154;1;12992;27.24;27.24;31,4;BCS1388054;6;16
001014;11.12.2019;22:52:10;Stop          ;28.11.2017;FEY;;LION;49;14500;7200;192;32;10;10;8400;3000;3357;3355;1;12991;33.84;32.34;33,0;BCS1388054;6;16
001014;12.12.2019;08:45:18;Normalcharge  ;28.11.2017;FEY;;LION;49;14500;7200;192;32;9;10;8400;3000;3364;3362;1;12992;26.44;27.14;31,7;BCS1388054;6;16
001014;12.12.2019;16:41:29;Stop          ;28.11.2017;FEY;;LION;49;14500;7200;224;32;94;100;8400;;4159;4158;1;12992;29.34;28.64;31,5;BCS1388054;6;16
001014;13.12.2019;10:48:09;Charge to 10% ;28.11.2017;FEY;;LION;49;14500;7200;224;32;94;100;8400;;4149;4149;1;12992;26.54;27.24;32,0;BCS1388054;6;16
001014;13.12.2019;13:51:54;Stop          ;28.11.2017;FEY;;LION;49;14500;7200;192;33;55;59;8400;3000;3663;3714;1;13491;34.64;38.54;36,1;BCS1388054;6;16
001014;16.12.2019;07:43:20;Charge to 10% ;28.11.2017;FEY;;LION;49;14500;7200;192;33;57;61;8400;3000;3765;3764;1;12995;23.04;27.64;31,9;BCS1388054;5;13
001014;16.12.2019;14:34:29;Stop          ;28.11.2017;FEY;;LION;49;14500;7200;192;34;9;10;8400;3000;3356;3354;1;12996;31.44;33.64;32,5;BCS1388054;5;13
001014;16.12.2019;14:44:17;Charge to 90% ;28.11.2017;FEY;;LION;49;14500;7200;192;34;9;10;8400;3000;3357;3355;1;12995;31.04;31.54;31,9;BCS1388054;5;13
001014;16.12.2019;20:48:55;Stop          ;28.11.2017;FEY;;LION;49;14500;7200;192;34;83;90;8400;3000;4034;4033;1;12996;32.44;33.34;31,9;BCS1388054;5;13
001014;17.12.2019;08:37:54;Fastcharge    ;28.11.2017;FEY;;LION;49;14500;7200;192;34;83;90;8400;3000;4026;4025;1;12995;26.74;28.04;31,6;BCS1388054;5;13
001014;17.12.2019;10:33:46;Stop          ;28.11.2017;FEY;;LION;49;14500;7200;224;34;93;100;8400;;4163;4161;1;12996;28.74;30.84;31,1;BCS1388054;5;13
001014;17.12.2019;10:33:46;Stop          ;28.11.2017;FEY;;LION;49;14500;7200;224;34;93;100;8400;;4163;4161;1;12996;28.74;30.84;31,1;BCS1388054;5;13
001014;17.12.2019;13:38:36;Charge to 10% ;28.11.2017;FEY;;LION;49;14500;7200;224;34;93;100;8400;;4151;4149;1;12995;27.04;28.24;30,8;BCS1388054;5;13
001014;17.12.2019;20:33:18;Stop          ;28.11.2017;FEY;;LION;49;14500;7200;192;35;10;10;8400;3000;3354;3352;1;12995;34.94;35.74;34,5;BCS1388054;5;13
001014;18.12.2019;08:31:30;Fastcharge    ;28.11.2017;FEY;;LION;49;14500;7200;192;35;9;10;8400;3000;3364;3361;1;12995;26.84;28.34;31,6;BCS1388054;5;13
001014;18.12.2019;14:29:27;Stop          ;28.11.2017;FEY;;LION;49;14500;7200;224;35;91;100;8400;;4160;4156;1;12996;30.74;31.14;31,7;BCS1388054;5;13
001014;19.12.2019;08:24:02;Charge to 60% ;28.11.2017;FEY;;LION;49;14500;7200;224;35;92;100;8400;;4149;4146;1;12995;26.74;28.14;31,5;BCS1388054;5;13
001014;19.12.2019;11:31:09;Stop          ;28.11.2017;FEY;;LION;49;14500;7200;192;35;56;60;8400;3000;3772;3767;1;12996;34.34;35.64;34,4;BCS1388054;5;13
001014;19.12.2019;12:16:49;Cycle         ;28.11.2017;FEY;;LION;49;14500;7200;192;35;56;60;8400;3000;3778;3774;1;12996;30.94;30.74;32,7;BCS1388054;5;13
001014;20.12.2019;17:27:50;Stop          ;28.11.2017;FEY;;LION;49;14500;7200;224;36;92;100;8400;;4153;4151;1;12995;27.24;28.34;31,0;BCS1388054;5;13
001014;06.01.2020;06:34:55;Charge to 60% ;28.11.2017;FEY;;LION;49;14500;7200;192;36;91;98;8400;;4124;4122;1;12996;27.14;28.44;31,9;BCS1388054;5;13
001014;06.01.2020;09:30:26;Stop          ;28.11.2017;FEY;;LION;49;14500;7200;192;37;56;60;8400;3000;3770;3767;1;12996;33.64;35.24;33,9;BCS1388054;5;13
001014;06.01.2020;09:50:42;Fastcharge    ;28.11.2017;FEY;;LION;49;14500;7200;192;37;56;60;8400;3000;3776;3774;1;12996;32.04;31.44;32,7;BCS1388054;5;13
001014;06.01.2020;13:09:56;Stop          ;28.11.2017;FEY;;LION;49;14500;7200;224;37;93;100;8400;;4158;4157;1;12996;30.14;30.54;31,4;BCS1388054;5;13