File: reader/backup_20210405/Batterieverzeichnis/001079.txt
Serialnumber ; Date ; Time ; Action ; Date of Manufacture ; Manufacturer ; Battery Name ; Device-Chemistry ; Specification-Info ; Design-Capacity [mAh] ; Design-Voltage [mV] ; Battery Status ; Cycle Count ; SOC [%] ; Relativ SOC[%] ; Desired Voltage [mV]; Desired Current [mA]; Cell Voltage 1 [mV] ; Cell Voltage 2 [mV] ; Max_Error [%] ; Busvoltage[mV] ; Battery Temperature [°C] ; Charger Temperature [°C] ; Batterysystem ; Case ; PLace
001079;10.12.2019;15:29:15;Charge to 30% ;15.02.2018;FEY;;LION;49;14500;7200;224;23;93;99;8400;;4123;4123;1;13032;22.34;24.84;27,1;BCS1388054;7;1
001079;10.12.2019;20:46:56;Stop          ;15.02.2018;FEY;;LION;49;14500;7200;192;23;29;30;8400;3000;3557;3557;1;13030;31.54;32.54;33,5;BCS1388054;7;1
001079;11.12.2019;08:49:12;Fastcharge    ;15.02.2018;FEY;;LION;49;14500;7200;192;23;29;30;8400;3000;3567;3567;1;13032;25.74;28.14;31,9;BCS1388054;7;1
001079;11.12.2019;13:38:42;Stop          ;15.02.2018;FEY;;LION;49;14500;7200;224;23;95;100;8400;;4163;4162;1;13031;28.24;30.24;32,7;BCS1388054;7;1
001079;11.12.2019;15:46:56;Charge to 10% ;15.02.2018;FEY;;LION;49;14500;7200;224;23;96;100;8400;;4154;4154;1;13032;26.34;28.54;31,2;BCS1388054;7;1
001079;11.12.2019;22:51:50;Stop          ;15.02.2018;FEY;;LION;49;14500;7200;192;25;10;10;8400;3000;3353;3353;1;13030;32.04;32.34;33,0;BCS1388054;7;1
001079;12.12.2019;08:45:27;Normalcharge  ;15.02.2018;FEY;;LION;49;14500;7200;192;25;9;10;8400;3000;3363;3363;1;13032;25.94;28.34;31,7;BCS1388054;7;1
001079;12.12.2019;16:41:08;Stop          ;15.02.2018;FEY;;LION;49;14500;7200;224;25;96;100;8400;;4161;4161;1;13031;27.84;29.54;31,6;BCS1388054;7;1
001079;13.12.2019;10:48:13;Charge to 10% ;15.02.2018;FEY;;LION;49;14500;7200;224;25;96;100;8400;;4150;4150;1;13032;25.94;28.44;32,0;BCS1388054;7;1
001079;13.12.2019;13:48:48;Stop          ;15.02.2018;FEY;;LION;49;14500;7200;192;25;58;61;8400;3000;3686;3735;1;13518;32.84;39.24;36,8;BCS1388054;7;1
001079;16.12.2019;07:43:34;Charge to 10% ;15.02.2018;FEY;;LION;49;14500;7200;192;25;61;63;8400;3000;3788;3788;1;13037;22.74;25.94;31,7;BCS1388054;7;5
001079;16.12.2019;11:52:34;Stop          ;15.02.2018;FEY;;LION;49;14500;7200;192;26;10;10;8400;3000;3342;3342;1;13035;31.74;31.44;34,7;BCS1388054;7;5
001079;16.12.2019;14:44:25;Charge to 90% ;15.02.2018;FEY;;LION;49;14500;7200;192;26;9;10;8400;3000;3351;3351;1;13037;28.24;28.74;31,7;BCS1388054;7;5
001079;16.12.2019;20:53:58;Stop          ;15.02.2018;FEY;;LION;49;14500;7200;192;26;85;90;8400;3000;4032;4032;1;13036;30.24;29.64;32,1;BCS1388054;7;5
001079;17.12.2019;08:38:01;Fastcharge    ;15.02.2018;FEY;;LION;49;14500;7200;192;26;85;90;8400;3000;4022;4022;1;13037;25.74;27.44;31,6;BCS1388054;7;5
001079;17.12.2019;10:36:25;Stop          ;15.02.2018;FEY;;LION;49;14500;7200;224;26;95;100;8400;;4162;4161;1;13036;27.14;28.24;31,5;BCS1388054;7;5
001079;17.12.2019;13:38:44;Charge to 10% ;15.02.2018;FEY;;LION;49;14500;7200;224;26;95;100;8400;;4152;4152;1;13037;26.04;27.44;30,8;BCS1388054;7;5
001079;17.12.2019;20:42:03;Stop          ;15.02.2018;FEY;;LION;49;14500;7200;192;27;10;10;8400;3000;3352;3351;1;13036;32.24;30.64;32,6;BCS1388054;7;5
001079;18.12.2019;08:31:43;Fastcharge    ;15.02.2018;FEY;;LION;49;14500;7200;192;27;9;9;8400;3000;3362;3362;1;13037;25.94;27.34;31,6;BCS1388054;7;5
001079;18.12.2019;14:30:48;Stop          ;15.02.2018;FEY;;LION;49;14500;7200;224;27;94;100;8400;;4163;4162;1;13037;28.54;28.64;31,6;BCS1388054;7;5
001079;19.12.2019;08:24:17;Charge to 60% ;15.02.2018;FEY;;LION;49;14500;7200;224;27;95;100;8400;;4150;4150;1;13037;25.84;27.44;31,6;BCS1388054;7;5
001079;19.12.2019;11:28:26;Stop          ;15.02.2018;FEY;;LION;49;14500;7200;192;27;57;60;8400;3000;3765;3765;1;13034;32.34;32.44;35,1;BCS1388054;7;5
001079;19.12.2019;12:16:57;Cycle         ;15.02.2018;FEY;;LION;49;14500;7200;192;27;57;60;8400;3000;3780;3781;1;13036;28.94;28.94;32,7;BCS1388054;7;5
001079;20.12.2019;17:22:28;Stop          ;15.02.2018;FEY;;LION;49;14500;7200;224;29;93;99;8400;;4153;4153;1;13037;26.04;27.64;31,9;BCS1388054;7;5
001079;06.01.2020;06:35:02;Charge to 60% ;15.02.2018;FEY;;LION;49;14500;7200;192;29;92;98;8400;;4123;4123;1;13038;25.94;27.44;31,9;BCS1388054;7;5
001079;06.01.2020;09:29:52;Stop          ;15.02.2018;FEY;;LION;49;14500;7200;192;29;57;60;8400;3000;3765;3766;1;13036;31.54;31.34;34,0;BCS1388054;7;5
001079;06.01.2020;09:50:50;Fastcharge    ;15.02.2018;FEY;;LION;49;14500;7200;192;29;57;60;8400;3000;3777;3777;1;13038;29.94;29.54;32,7;BCS1388054;7;5
001079;06.01.2020;13:05:11;Stop          ;15.02.2018;FEY;;LION;49;14500;7200;224;29;94;100;8400;;4160;4160;1;13037;28.14;28.64;32,4;BCS1388054;7;5