File: reader/backup_20210405/Batterieverzeichnis/009555.txt
Serialnumber ; Date ; Time ; Action ; Date of Manufacture ; Manufacturer ; Battery Name ; Device-Chemistry ; Specification-Info ; Design-Capacity [mAh] ; Design-Voltage [mV] ; Battery Status ; Cycle Count ; SOC [%] ; Relativ SOC[%] ; Desired Voltage [mV]; Desired Current [mA]; Cell Voltage 1 [mV] ; Cell Voltage 2 [mV] ; Max_Error [%] ; Busvoltage[mV] ; Battery Temperature [°C] ; Charger Temperature [°C] ; Batterysystem ; Case ; PLace
009555;10.12.2019;15:28:33;Charge to 30% ;04.12.2018;FEY;;LION;49;14500;7200;192;48;91;98;8400;;4109;4108;1;12996;23.54;25.24;27,1;BCS1388054;1;4
009555;10.12.2019;20:42:16;Stop          ;04.12.2018;FEY;;LION;49;14500;7200;192;49;29;30;8400;3000;3561;3561;1;12994;32.34;32.04;34,1;BCS1388054;1;4
009555;11.12.2019;08:48:18;Fastcharge    ;04.12.2018;FEY;;LION;49;14500;7200;192;49;29;31;8400;3000;3569;3569;1;12994;26.14;27.44;31,9;BCS1388054;1;4
009555;11.12.2019;13:40:21;Stop          ;04.12.2018;FEY;;LION;49;14500;7200;224;49;94;100;8400;;4161;4161;1;12994;29.14;28.84;32,4;BCS1388054;1;4
009555;11.12.2019;15:45:57;Charge to 30% ;04.12.2018;FEY;;LION;49;14500;7200;224;49;95;100;8400;;4152;4153;1;12994;26.84;27.54;31,5;BCS1388054;1;4
009555;11.12.2019;15:46:00;Stop          ;04.12.2018;FEY;;LION;49;14500;7200;224;49;95;100;8400;;4152;4153;1;12994;26.84;27.54;31,5;BCS1388054;1;4
009555;11.12.2019;15:46:13;Charge to 10% ;04.12.2018;FEY;;LION;49;14500;7200;224;49;95;100;8400;;4153;4153;1;12994;26.84;27.44;31,5;BCS1388054;1;4
009555;11.12.2019;22:50:20;Stop          ;04.12.2018;FEY;;LION;49;14500;7200;192;50;10;10;8400;3000;3358;3358;1;12993;32.74;31.34;33,4;BCS1388054;1;4
009555;12.12.2019;08:44:40;Normalcharge  ;04.12.2018;FEY;;LION;49;14500;7200;192;50;9;10;8400;3000;3367;3367;1;12994;26.34;27.54;31,9;BCS1388054;1;4
009555;12.12.2019;16:39:22;Stop          ;04.12.2018;FEY;;LION;49;14500;7200;224;50;95;100;8400;;4160;4160;1;12993;28.54;28.54;31,7;BCS1388054;1;4
009555;13.12.2019;10:47:47;Charge to 10% ;04.12.2018;FEY;;LION;49;14500;7200;224;50;95;100;8400;;4148;4148;1;12995;26.34;27.64;32,0;BCS1388054;1;4
009555;13.12.2019;15:41:58;Stop          ;04.12.2018;FEY;;LION;49;14500;7200;192;51;34;36;8400;3000;3498;3549;1;13619;31.94;36.14;34,6;BCS1388054;1;4
009555;13.12.2019;15:42:01;Cycle         ;04.12.2018;FEY;;LION;49;14500;7200;192;51;34;36;8400;3000;3498;3549;1;13619;31.94;36.14;34,6;BCS1388054;1;4
009555;14.12.2019;22:41:25;Stop          ;04.12.2018;FEY;;LION;49;14500;7200;224;52;93;99;8400;;4151;4151;1;12993;26.34;27.44;31,9;BCS1388054;1;4
009555;16.12.2019;07:43:03;Charge to 10% ;04.12.2018;FEY;;LION;49;14500;7200;224;52;93;100;8400;;4145;4145;1;12993;26.04;26.94;31,9;BCS1388054;1;4
009555;16.12.2019;14:36:13;Stop          ;04.12.2018;FEY;;LION;49;14500;7200;192;53;10;10;8400;3000;3366;3366;1;12993;31.64;30.44;32,4;BCS1388054;1;4
009555;16.12.2019;14:44:00;Charge to 90% ;04.12.2018;FEY;;LION;49;14500;7200;192;53;10;10;8400;3000;3367;3368;1;12994;31.14;29.64;31,7;BCS1388054;1;4
009555;16.12.2019;20:50:03;Stop          ;04.12.2018;FEY;;LION;49;14500;7200;192;53;84;90;8400;3000;4055;4056;1;12995;30.74;29.54;31,7;BCS1388054;1;4
009555;17.12.2019;08:37:36;Fastcharge    ;04.12.2018;FEY;;LION;49;14500;7200;192;53;84;90;8400;3000;4046;4047;1;12995;26.14;27.34;31,6;BCS1388054;1;4
009555;17.12.2019;10:31:11;Stop          ;04.12.2018;FEY;;LION;49;14500;7200;224;53;94;100;8400;;4160;4161;1;12994;27.44;27.94;31,4;BCS1388054;1;4
009555;17.12.2019;13:38:19;Charge to 10% ;04.12.2018;FEY;;LION;49;14500;7200;224;53;94;100;8400;;4149;4149;1;12994;26.44;27.24;30,8;BCS1388054;1;4
009555;17.12.2019;20:33:50;Stop          ;04.12.2018;FEY;;LION;49;14500;7200;192;55;10;10;8400;3000;3363;3363;1;12994;32.84;31.64;34,2;BCS1388054;1;4
009555;18.12.2019;08:31:14;Fastcharge    ;04.12.2018;FEY;;LION;49;14500;7200;192;55;9;10;8400;3000;3372;3373;1;12994;26.24;27.34;31,6;BCS1388054;1;4
009555;18.12.2019;14:28:33;Stop          ;04.12.2018;FEY;;LION;49;14500;7200;224;55;94;100;8400;;4160;4161;1;12994;29.24;28.74;31,9;BCS1388054;1;4
009555;19.12.2019;08:23:45;Charge to 60% ;04.12.2018;FEY;;LION;49;14500;7200;224;55;95;100;8400;;4148;4148;1;12993;26.14;27.34;31,5;BCS1388054;1;4
009555;19.12.2019;11:29:32;Stop          ;04.12.2018;FEY;;LION;49;14500;7200;192;55;57;60;8400;3000;3761;3763;1;12994;32.84;32.54;34,9;BCS1388054;1;4
009555;19.12.2019;12:16:33;Cycle         ;04.12.2018;FEY;;LION;49;14500;7200;192;55;57;60;8400;3000;3772;3775;1;12993;29.74;29.04;32,7;BCS1388054;1;4
009555;20.12.2019;17:26:19;Stop          ;04.12.2018;FEY;;LION;49;14500;7200;224;56;93;100;8400;;4151;4151;1;12993;26.34;27.14;31,2;BCS1388054;1;4
009555;06.01.2020;06:34:38;Charge to 60% ;04.12.2018;FEY;;LION;49;14500;7200;224;56;92;99;8400;;4122;4122;1;12995;26.24;27.24;31,9;BCS1388054;1;4
009555;06.01.2020;09:30:29;Stop          ;04.12.2018;FEY;;LION;49;14500;7200;192;57;56;60;8400;3000;3758;3760;1;12994;32.04;31.74;33,9;BCS1388054;1;4
009555;06.01.2020;09:50:27;Fastcharge    ;04.12.2018;FEY;;LION;49;14500;7200;192;57;56;60;8400;3000;3768;3770;1;12995;30.74;29.54;32,6;BCS1388054;1;4
009555;06.01.2020;13:07:36;Stop          ;04.12.2018;FEY;;LION;49;14500;7200;224;57;93;100;8400;;4162;4164;1;12995;28.84;28.64;31,7;BCS1388054;1;4