File: reader/backup_20210405/Batterieverzeichnis/009525.txt
Serialnumber ; Date ; Time ; Action ; Date of Manufacture ; Manufacturer ; Battery Name ; Device-Chemistry ; Specification-Info ; Design-Capacity [mAh] ; Design-Voltage [mV] ; Battery Status ; Cycle Count ; SOC [%] ; Relativ SOC[%] ; Desired Voltage [mV]; Desired Current [mA]; Cell Voltage 1 [mV] ; Cell Voltage 2 [mV] ; Max_Error [%] ; Busvoltage[mV] ; Battery Temperature [°C] ; Charger Temperature [°C] ; Batterysystem ; Case ; PLace
009525;10.12.2019;15:29:01;Charge to 30% ;04.12.2018;FEY;;LION;49;14500;7200;224;43;94;100;8400;;4132;4131;1;13005;22.64;23.94;27,1;BCS1388054;5;10
009525;10.12.2019;20:48:54;Stop          ;04.12.2018;FEY;;LION;49;14500;7200;192;44;29;30;8400;3000;3558;3556;1;13002;33.74;32.54;33,1;BCS1388054;5;10
009525;11.12.2019;08:48:53;Fastcharge    ;04.12.2018;FEY;;LION;49;14500;7200;192;44;29;30;8400;3000;3568;3566;1;13004;26.64;27.34;31,9;BCS1388054;5;10
009525;11.12.2019;13:40:11;Stop          ;04.12.2018;FEY;;LION;49;14500;7200;224;44;95;100;8400;;4164;4165;1;13003;30.54;29.94;32,4;BCS1388054;5;10
009525;11.12.2019;15:46:40;Charge to 10% ;04.12.2018;FEY;;LION;49;14500;7200;224;44;97;100;8400;;4155;4155;1;13003;27.44;27.64;31,4;BCS1388054;5;10
009525;11.12.2019;22:49:07;Stop          ;04.12.2018;FEY;;LION;49;14500;7200;192;45;10;10;8400;3000;3355;3352;1;13002;34.64;33.34;33,5;BCS1388054;5;10
009525;12.12.2019;08:45:10;Normalcharge  ;04.12.2018;FEY;;LION;49;14500;7200;192;45;9;10;8400;3000;3365;3364;1;13003;26.84;27.44;31,7;BCS1388054;5;10
009525;12.12.2019;16:41:20;Stop          ;04.12.2018;FEY;;LION;49;14500;7200;224;45;97;100;8400;;4162;4161;1;13003;29.64;28.94;31,6;BCS1388054;5;10
009525;13.12.2019;10:48:05;Charge to 10% ;04.12.2018;FEY;;LION;49;14500;7200;224;45;97;100;8400;;4150;4149;1;13004;26.84;27.54;32,0;BCS1388054;5;10
009525;13.12.2019;15:40:55;Stop          ;04.12.2018;FEY;;LION;49;14500;7200;192;46;36;37;8400;3000;3505;3555;1;13513;33.04;37.14;34,6;BCS1388054;5;10
009525;13.12.2019;15:41:42;Cycle         ;04.12.2018;FEY;;LION;49;14500;7200;192;46;36;37;8400;3000;3587;3585;1;13003;32.94;34.84;34,5;BCS1388054;5;10
009525;14.12.2019;22:39:35;Stop          ;04.12.2018;FEY;;LION;49;14500;7200;224;47;94;100;8400;;4153;4150;1;13003;26.94;27.34;31,7;BCS1388054;5;10
009525;16.12.2019;07:43:20;Charge to 10% ;04.12.2018;FEY;;LION;49;14500;7200;224;47;95;100;8400;;4147;4144;1;13004;26.64;26.64;31,9;BCS1388054;5;10
009525;16.12.2019;14:34:29;Stop          ;04.12.2018;FEY;;LION;49;14500;7200;192;48;10;10;8400;3000;3359;3354;1;13003;32.94;33.34;32,5;BCS1388054;5;10
009525;16.12.2019;14:44:17;Charge to 90% ;04.12.2018;FEY;;LION;49;14500;7200;192;48;10;10;8400;3000;3367;3362;1;13002;32.14;29.94;31,9;BCS1388054;5;10
009525;16.12.2019;20:48:55;Stop          ;04.12.2018;FEY;;LION;49;14500;7200;192;48;85;90;8400;3000;4061;4060;1;13004;32.44;32.14;31,9;BCS1388054;5;10
009525;17.12.2019;08:37:53;Fastcharge    ;04.12.2018;FEY;;LION;49;14500;7200;192;48;85;90;8400;3000;4046;4044;1;13003;26.74;27.34;31,6;BCS1388054;5;10
009525;17.12.2019;10:33:46;Stop          ;04.12.2018;FEY;;LION;49;14500;7200;224;48;95;100;8400;;4160;4160;1;13002;28.44;28.34;31,1;BCS1388054;5;10
009525;17.12.2019;10:33:46;Stop          ;04.12.2018;FEY;;LION;49;14500;7200;224;48;95;100;8400;;4160;4160;1;13002;28.44;28.34;31,1;BCS1388054;5;10
009525;17.12.2019;13:38:36;Charge to 10% ;04.12.2018;FEY;;LION;49;14500;7200;224;48;95;100;8400;;4151;4151;1;13003;27.04;27.24;30,8;BCS1388054;5;10
009525;17.12.2019;20:33:18;Stop          ;04.12.2018;FEY;;LION;49;14500;7200;192;49;10;10;8400;3000;3358;3355;1;13002;34.74;34.34;34,5;BCS1388054;5;10
009525;18.12.2019;08:31:30;Fastcharge    ;04.12.2018;FEY;;LION;49;14500;7200;192;49;9;10;8400;3000;3372;3369;1;13004;26.84;27.34;31,6;BCS1388054;5;10
009525;18.12.2019;14:29:27;Stop          ;04.12.2018;FEY;;LION;49;14500;7200;224;49;95;100;8400;;4162;4164;1;13003;30.64;29.44;31,7;BCS1388054;5;10
009525;19.12.2019;08:24:02;Charge to 60% ;04.12.2018;FEY;;LION;49;14500;7200;224;49;96;100;8400;;4150;4152;1;13002;26.74;27.34;31,5;BCS1388054;5;10
009525;19.12.2019;11:31:09;Stop          ;04.12.2018;FEY;;LION;49;14500;7200;192;50;58;60;8400;3000;3764;3761;1;13002;34.24;33.94;34,4;BCS1388054;5;10
009525;19.12.2019;12:16:49;Cycle         ;04.12.2018;FEY;;LION;49;14500;7200;192;50;58;60;8400;3000;3777;3774;1;13003;30.94;29.64;32,7;BCS1388054;5;10
009525;20.12.2019;17:27:50;Stop          ;04.12.2018;FEY;;LION;49;14500;7200;224;51;94;100;8400;;4153;4151;1;13005;27.14;27.24;31,0;BCS1388054;5;10
009525;06.01.2020;06:34:55;Charge to 60% ;04.12.2018;FEY;;LION;49;14500;7200;224;51;93;99;8400;;4123;4121;1;13003;27.04;27.44;31,9;BCS1388054;5;10
009525;06.01.2020;09:30:26;Stop          ;04.12.2018;FEY;;LION;49;14500;7200;192;52;57;60;8400;3000;3760;3756;1;13003;33.44;34.24;33,9;BCS1388054;5;10
009525;06.01.2020;09:50:42;Fastcharge    ;04.12.2018;FEY;;LION;49;14500;7200;192;52;57;60;8400;3000;3774;3768;1;13005;32.04;30.34;32,7;BCS1388054;5;10
009525;06.01.2020;13:09:56;Stop          ;04.12.2018;FEY;;LION;49;14500;7200;224;52;95;100;8400;;4160;4160;1;13005;30.04;28.84;31,4;BCS1388054;5;10