File: reader/backup_20210405/Batterieverzeichnis/009562.txt
Serialnumber ; Date ; Time ; Action ; Date of Manufacture ; Manufacturer ; Battery Name ; Device-Chemistry ; Specification-Info ; Design-Capacity [mAh] ; Design-Voltage [mV] ; Battery Status ; Cycle Count ; SOC [%] ; Relativ SOC[%] ; Desired Voltage [mV]; Desired Current [mA]; Cell Voltage 1 [mV] ; Cell Voltage 2 [mV] ; Max_Error [%] ; Busvoltage[mV] ; Battery Temperature [°C] ; Charger Temperature [°C] ; Batterysystem ; Case ; PLace
009562;10.12.2019;15:28:40;Charge to 30% ;04.12.2018;FEY;;LION;49;14500;7200;224;54;92;99;8400;;4131;4130;1;13014;22.94;25.44;27,1;BCS1388054;2;3
009562;10.12.2019;20:48:37;Stop          ;04.12.2018;FEY;;LION;49;14500;7200;192;55;29;30;8400;3000;3562;3562;1;13014;33.54;34.44;33,2;BCS1388054;2;3
009562;11.12.2019;08:48:24;Fastcharge    ;04.12.2018;FEY;;LION;49;14500;7200;192;55;29;30;8400;3000;3569;3569;1;13014;26.34;29.14;31,9;BCS1388054;2;3
009562;11.12.2019;13:39:47;Stop          ;04.12.2018;FEY;;LION;49;14500;7200;224;55;94;100;8400;;4159;4158;1;13015;30.14;31.44;32,5;BCS1388054;2;3
009562;11.12.2019;15:46:18;Charge to 10% ;04.12.2018;FEY;;LION;49;14500;7200;224;55;95;99;8400;;4152;4151;1;13015;27.24;29.54;31,4;BCS1388054;2;3
009562;11.12.2019;22:49:04;Stop          ;04.12.2018;FEY;;LION;49;14500;7200;192;56;10;10;8400;3000;3352;3352;1;13013;34.34;35.04;33,6;BCS1388054;2;3
009562;12.12.2019;08:44:52;Normalcharge  ;04.12.2018;FEY;;LION;49;14500;7200;192;56;9;10;8400;3000;3362;3362;1;13015;26.54;29.24;31,9;BCS1388054;2;3
009562;12.12.2019;16:40:06;Stop          ;04.12.2018;FEY;;LION;49;14500;7200;224;56;95;100;8400;;4160;4160;1;13014;29.24;31.04;31,7;BCS1388054;2;3
009562;13.12.2019;10:47:50;Charge to 10% ;04.12.2018;FEY;;LION;49;14500;7200;224;56;95;100;8400;;4148;4148;1;13015;26.54;29.34;32,0;BCS1388054;2;3
009562;13.12.2019;15:42:08;Cycle         ;04.12.2018;FEY;;LION;49;14500;7200;192;57;34;36;8400;3000;3498;3549;1;13573;33.24;39.94;34,6;BCS1388054;2;3
009562;13.12.2019;15:42:08;Stop          ;04.12.2018;FEY;;LION;49;14500;7200;192;57;34;36;8400;3000;3498;3549;1;13573;33.24;39.94;34,6;BCS1388054;2;3
009562;14.12.2019;22:48:51;Stop          ;04.12.2018;FEY;;LION;49;14500;7200;224;58;93;99;8400;;4150;4150;1;13015;26.74;29.34;32,0;BCS1388054;2;3
009562;16.12.2019;07:43:06;Charge to 10% ;04.12.2018;FEY;;LION;49;14500;7200;224;58;94;100;8400;;4145;4145;1;13015;26.24;28.74;31,9;BCS1388054;2;3
009562;16.12.2019;14:37:54;Stop          ;04.12.2018;FEY;;LION;49;14500;7200;192;60;10;10;8400;3000;3365;3365;1;13015;32.94;33.44;32,4;BCS1388054;2;3
009562;16.12.2019;14:44:03;Charge to 90% ;04.12.2018;FEY;;LION;49;14500;7200;192;60;10;10;8400;3000;3366;3366;1;13015;32.44;32.44;31,9;BCS1388054;2;3
009562;16.12.2019;20:51:09;Stop          ;04.12.2018;FEY;;LION;49;14500;7200;192;60;84;90;8400;3000;4055;4056;1;13016;31.74;32.54;31,6;BCS1388054;2;3
009562;17.12.2019;08:37:40;Fastcharge    ;04.12.2018;FEY;;LION;49;14500;7200;192;60;84;90;8400;3000;4046;4046;1;13015;26.34;29.04;31,6;BCS1388054;2;3
009562;17.12.2019;10:30:36;Stop          ;04.12.2018;FEY;;LION;49;14500;7200;224;60;94;100;8400;;4161;4161;1;13015;27.84;30.54;31,5;BCS1388054;2;3
009562;17.12.2019;13:38:22;Charge to 10% ;04.12.2018;FEY;;LION;49;14500;7200;224;60;94;100;8400;;4148;4148;1;13015;26.74;29.14;30,8;BCS1388054;2;3
009562;17.12.2019;20:36:00;Stop          ;04.12.2018;FEY;;LION;49;14500;7200;192;61;10;10;8400;3000;3364;3364;1;13015;34.14;34.64;33,6;BCS1388054;2;3
009562;18.12.2019;08:31:17;Fastcharge    ;04.12.2018;FEY;;LION;49;14500;7200;192;61;10;10;8400;3000;3372;3373;1;13015;26.44;29.24;31,6;BCS1388054;2;3
009562;18.12.2019;14:28:27;Stop          ;04.12.2018;FEY;;LION;49;14500;7200;224;61;94;100;8400;;4159;4159;1;13016;30.14;31.44;32,0;BCS1388054;2;3
009562;19.12.2019;08:23:50;Charge to 60% ;04.12.2018;FEY;;LION;49;14500;7200;224;61;95;100;8400;;4148;4148;1;13015;26.34;28.94;31,5;BCS1388054;2;3
009562;19.12.2019;11:32:11;Stop          ;04.12.2018;FEY;;LION;49;14500;7200;192;61;57;60;8400;3000;3767;3768;1;13014;34.04;35.24;34,0;BCS1388054;2;3
009562;19.12.2019;12:16:37;Cycle         ;04.12.2018;FEY;;LION;49;14500;7200;192;61;57;60;8400;3000;3775;3776;1;13015;30.74;31.44;32,7;BCS1388054;2;3
009562;20.12.2019;17:35:47;Stop          ;04.12.2018;FEY;;LION;49;14500;7200;224;62;93;100;8400;;4151;4152;1;13015;26.64;29.04;31,1;BCS1388054;2;3
009562;06.01.2020;06:34:42;Charge to 60% ;04.12.2018;FEY;;LION;49;14500;7200;224;62;92;99;8400;;4121;4121;1;13016;26.44;29.04;31,9;BCS1388054;2;3
009562;06.01.2020;09:32:11;Stop          ;04.12.2018;FEY;;LION;49;14500;7200;192;63;57;60;8400;3000;3774;3775;1;13015;33.24;34.24;33,2;BCS1388054;2;3
009562;06.01.2020;09:50:30;Fastcharge    ;04.12.2018;FEY;;LION;49;14500;7200;192;63;57;60;8400;3000;3780;3781;1;13016;31.84;32.14;32,7;BCS1388054;2;3
009562;06.01.2020;13:08:34;Stop          ;04.12.2018;FEY;;LION;49;14500;7200;224;63;94;100;8400;;4158;4159;1;13016;29.64;30.94;31,6;BCS1388054;2;3