File: reader/backup_20210405/Batterieverzeichnis/009698.txt
Serialnumber ; Date ; Time ; Action ; Date of Manufacture ; Manufacturer ; Battery Name ; Device-Chemistry ; Specification-Info ; Design-Capacity [mAh] ; Design-Voltage [mV] ; Battery Status ; Cycle Count ; SOC [%] ; Relativ SOC[%] ; Desired Voltage [mV]; Desired Current [mA]; Cell Voltage 1 [mV] ; Cell Voltage 2 [mV] ; Max_Error [%] ; Busvoltage[mV] ; Battery Temperature [°C] ; Charger Temperature [°C] ; Batterysystem ; Case ; PLace
009698;10.12.2019;15:28:41;Charge to 30% ;04.12.2018;FEY;;LION;49;14500;7200;224;52;92;100;8400;;4132;4131;1;12994;22.94;24.84;27,1;BCS1388054;2;18
009698;10.12.2019;20:48:37;Stop          ;04.12.2018;FEY;;LION;49;14500;7200;192;52;28;30;8400;3000;3561;3559;1;12992;32.44;34.34;33,2;BCS1388054;2;18
009698;11.12.2019;08:48:24;Fastcharge    ;04.12.2018;FEY;;LION;49;14500;7200;192;52;28;30;8400;3000;3569;3568;1;12993;26.04;28.04;31,9;BCS1388054;2;18
009698;11.12.2019;13:39:47;Stop          ;04.12.2018;FEY;;LION;49;14500;7200;224;52;94;100;8400;;4160;4160;1;12992;28.94;31.04;32,5;BCS1388054;2;18
009698;11.12.2019;15:46:18;Charge to 10% ;04.12.2018;FEY;;LION;49;14500;7200;224;52;95;100;8400;;4152;4152;1;12992;26.74;28.64;31,4;BCS1388054;2;18
009698;11.12.2019;22:49:04;Stop          ;04.12.2018;FEY;;LION;49;14500;7200;192;54;10;10;8400;3000;3354;3353;1;12993;33.04;34.94;33,6;BCS1388054;2;18
009698;12.12.2019;08:44:52;Normalcharge  ;04.12.2018;FEY;;LION;49;14500;7200;192;54;9;10;8400;3000;3364;3363;1;12992;26.24;28.24;31,9;BCS1388054;2;18
009698;12.12.2019;16:40:06;Stop          ;04.12.2018;FEY;;LION;49;14500;7200;224;54;95;100;8400;;4161;4160;1;12992;28.44;30.44;31,7;BCS1388054;2;18
009698;13.12.2019;10:47:50;Charge to 10% ;04.12.2018;FEY;;LION;49;14500;7200;224;54;95;100;8400;;4148;4148;1;12992;26.24;28.24;32,0;BCS1388054;2;18
009698;13.12.2019;15:42:08;Cycle         ;04.12.2018;FEY;;LION;49;14500;7200;192;54;34;36;8400;3000;3500;3550;1;13566;32.24;40.94;34,6;BCS1388054;2;18
009698;13.12.2019;15:42:08;Stop          ;04.12.2018;FEY;;LION;49;14500;7200;192;54;34;36;8400;3000;3500;3550;1;13566;32.24;40.94;34,6;BCS1388054;2;18
009698;14.12.2019;22:48:51;Stop          ;04.12.2018;FEY;;LION;49;14500;7200;224;56;93;99;8400;;4151;4150;1;12993;26.34;28.34;32,0;BCS1388054;2;18
009698;16.12.2019;07:43:06;Charge to 10% ;04.12.2018;FEY;;LION;49;14500;7200;224;56;93;100;8400;;4145;4144;1;12993;25.94;27.64;31,9;BCS1388054;2;18
009698;16.12.2019;14:37:54;Stop          ;04.12.2018;FEY;;LION;49;14500;7200;192;57;10;10;8400;3000;3367;3366;1;12994;31.54;33.04;32,4;BCS1388054;2;18
009698;16.12.2019;14:44:03;Charge to 90% ;04.12.2018;FEY;;LION;49;14500;7200;192;57;10;10;8400;3000;3368;3367;1;12993;31.04;32.14;31,9;BCS1388054;2;18
009698;16.12.2019;20:51:09;Stop          ;04.12.2018;FEY;;LION;49;14500;7200;192;57;84;90;8400;3000;4055;4055;1;12994;30.44;32.24;31,6;BCS1388054;2;18
009698;17.12.2019;08:37:41;Fastcharge    ;04.12.2018;FEY;;LION;49;14500;7200;192;57;84;90;8400;3000;4047;4046;1;12993;26.04;27.94;31,6;BCS1388054;2;18
009698;17.12.2019;10:30:36;Stop          ;04.12.2018;FEY;;LION;49;14500;7200;224;57;94;100;8400;;4163;4163;1;12994;27.64;30.44;31,5;BCS1388054;2;18
009698;17.12.2019;13:38:22;Charge to 10% ;04.12.2018;FEY;;LION;49;14500;7200;224;57;94;100;8400;;4150;4151;1;12993;26.34;28.24;30,8;BCS1388054;2;18
009698;17.12.2019;20:36:00;Stop          ;04.12.2018;FEY;;LION;49;14500;7200;192;58;10;10;8400;3000;3365;3365;1;12995;32.84;34.34;33,6;BCS1388054;2;18
009698;18.12.2019;08:31:17;Fastcharge    ;04.12.2018;FEY;;LION;49;14500;7200;192;58;10;10;8400;3000;3374;3373;1;12994;26.24;28.24;31,6;BCS1388054;2;18
009698;18.12.2019;14:28:27;Stop          ;04.12.2018;FEY;;LION;49;14500;7200;224;58;94;100;8400;;4160;4161;1;12994;29.04;30.94;32,0;BCS1388054;2;18
009698;19.12.2019;08:23:50;Charge to 60% ;04.12.2018;FEY;;LION;49;14500;7200;224;58;95;100;8400;;4148;4149;1;12993;26.04;28.04;31,5;BCS1388054;2;18
009698;19.12.2019;11:32:11;Stop          ;04.12.2018;FEY;;LION;49;14500;7200;192;58;57;60;8400;3000;3767;3767;1;12993;32.94;35.04;34,0;BCS1388054;2;18
009698;19.12.2019;12:16:37;Cycle         ;04.12.2018;FEY;;LION;49;14500;7200;192;58;57;60;8400;3000;3775;3775;1;12994;29.34;30.74;32,7;BCS1388054;2;18
009698;20.12.2019;17:35:47;Stop          ;04.12.2018;FEY;;LION;49;14500;7200;224;60;93;100;8400;;4151;4151;1;12994;26.24;28.04;31,1;BCS1388054;2;18
009698;06.01.2020;06:34:42;Charge to 60% ;04.12.2018;FEY;;LION;49;14500;7200;224;60;92;99;8400;;4122;4122;1;12995;26.14;28.04;31,9;BCS1388054;2;18
009698;06.01.2020;09:32:11;Stop          ;04.12.2018;FEY;;LION;49;14500;7200;192;60;56;60;8400;3000;3767;3767;1;12994;32.24;34.44;33,2;BCS1388054;2;18
009698;06.01.2020;09:50:30;Fastcharge    ;04.12.2018;FEY;;LION;49;14500;7200;192;60;56;60;8400;3000;3774;3774;1;12995;30.54;31.54;32,7;BCS1388054;2;18
009698;06.01.2020;13:08:34;Stop          ;04.12.2018;FEY;;LION;49;14500;7200;224;60;94;100;8400;;4159;4159;1;12994;28.54;30.54;31,6;BCS1388054;2;18