File: reader/backup_20210405/Batterieverzeichnis/009638.txt
Serialnumber ; Date ; Time ; Action ; Date of Manufacture ; Manufacturer ; Battery Name ; Device-Chemistry ; Specification-Info ; Design-Capacity [mAh] ; Design-Voltage [mV] ; Battery Status ; Cycle Count ; SOC [%] ; Relativ SOC[%] ; Desired Voltage [mV]; Desired Current [mA]; Cell Voltage 1 [mV] ; Cell Voltage 2 [mV] ; Max_Error [%] ; Busvoltage[mV] ; Battery Temperature [°C] ; Charger Temperature [°C] ; Batterysystem ; Case ; PLace
009638;10.12.2019;15:28:54;Charge to 30% ;04.12.2018;FEY;;LION;49;14500;7200;224;49;93;99;8400;;4130;4129;1;13014;23.04;24.34;27,1;BCS1388054;4;14
009638;10.12.2019;20:47:57;Stop          ;04.12.2018;FEY;;LION;49;14500;7200;192;50;29;30;8400;3000;3560;3561;1;13012;34.54;35.34;33,4;BCS1388054;4;14
009638;11.12.2019;08:48:41;Fastcharge    ;04.12.2018;FEY;;LION;49;14500;7200;192;50;29;30;8400;3000;3569;3570;1;13013;27.04;28.24;31,9;BCS1388054;4;14
009638;11.12.2019;13:42:44;Stop          ;04.12.2018;FEY;;LION;49;14500;7200;224;50;95;100;8400;;4161;4161;1;13014;31.04;30.94;31,9;BCS1388054;4;14
009638;11.12.2019;15:46:31;Charge to 10% ;04.12.2018;FEY;;LION;49;14500;7200;224;50;96;99;8400;;4154;4154;1;13013;27.84;28.64;31,4;BCS1388054;4;14
009638;11.12.2019;22:50:44;Stop          ;04.12.2018;FEY;;LION;49;14500;7200;192;51;10;10;8400;3000;3360;3362;1;13011;35.24;34.74;33,2;BCS1388054;4;14
009638;12.12.2019;08:45:03;Normalcharge  ;04.12.2018;FEY;;LION;49;14500;7200;192;51;9;10;8400;3000;3368;3370;1;13013;27.14;28.34;31,9;BCS1388054;4;14
009638;12.12.2019;16:41:48;Stop          ;04.12.2018;FEY;;LION;49;14500;7200;224;51;96;100;8400;;4160;4160;1;13012;30.14;30.34;31,5;BCS1388054;4;14
009638;13.12.2019;10:48:01;Charge to 10% ;04.12.2018;FEY;;LION;49;14500;7200;224;51;95;100;8400;;4149;4149;1;13012;27.24;28.34;32,0;BCS1388054;4;14
009638;13.12.2019;15:42:25;Stop          ;04.12.2018;FEY;;LION;49;14500;7200;192;52;34;36;8400;3000;3502;3555;1;13511;33.94;41.44;34,6;BCS1388054;4;14
009638;13.12.2019;15:42:27;Cycle         ;04.12.2018;FEY;;LION;49;14500;7200;192;52;34;36;8400;3000;3502;3555;1;13510;33.94;41.44;34,6;BCS1388054;4;14
009638;14.12.2019;22:44:28;Stop          ;04.12.2018;FEY;;LION;49;14500;7200;224;53;93;100;8400;;4151;4152;1;13013;27.34;28.44;32,0;BCS1388054;4;14
009638;16.12.2019;07:43:14;Charge to 10% ;04.12.2018;FEY;;LION;49;14500;7200;224;53;94;100;8400;;4146;4146;1;13013;27.04;28.04;31,9;BCS1388054;4;14
009638;16.12.2019;14:36:44;Stop          ;04.12.2018;FEY;;LION;49;14500;7200;192;54;10;10;8400;3000;3365;3368;1;13012;33.64;33.84;32,4;BCS1388054;4;14
009638;16.12.2019;14:44:13;Charge to 90% ;04.12.2018;FEY;;LION;49;14500;7200;192;54;10;10;8400;3000;3368;3370;1;13013;32.94;31.74;31,7;BCS1388054;4;14
009638;16.12.2019;20:50:28;Stop          ;04.12.2018;FEY;;LION;49;14500;7200;192;54;84;90;8400;3000;4057;4059;1;13014;32.84;33.14;31,6;BCS1388054;4;14
009638;17.12.2019;08:37:50;Fastcharge    ;04.12.2018;FEY;;LION;49;14500;7200;192;54;84;90;8400;3000;4048;4050;1;13013;27.04;28.24;31,6;BCS1388054;4;14
009638;17.12.2019;10:31:06;Stop          ;04.12.2018;FEY;;LION;49;14500;7200;224;54;94;100;8400;;4162;4162;1;13013;29.04;30.44;31,4;BCS1388054;4;14
009638;17.12.2019;13:38:32;Charge to 10% ;04.12.2018;FEY;;LION;49;14500;7200;224;54;94;100;8400;;4151;4151;1;13013;27.34;28.24;30,8;BCS1388054;4;14
009638;17.12.2019;20:34:29;Stop          ;04.12.2018;FEY;;LION;49;14500;7200;192;55;10;10;8400;3000;3366;3369;1;13011;35.34;35.14;34,1;BCS1388054;4;14
009638;18.12.2019;08:31:26;Fastcharge    ;04.12.2018;FEY;;LION;49;14500;7200;192;55;10;11;8400;3000;3376;3378;1;13013;27.14;28.34;31,6;BCS1388054;4;14
009638;18.12.2019;14:29:12;Stop          ;04.12.2018;FEY;;LION;49;14500;7200;224;55;95;100;8400;;4161;4163;1;13014;31.14;31.04;31,9;BCS1388054;4;14
009638;19.12.2019;08:23:58;Charge to 60% ;04.12.2018;FEY;;LION;49;14500;7200;224;55;95;100;8400;;4150;4151;1;13013;27.04;28.14;31,6;BCS1388054;4;14
009638;19.12.2019;11:30:18;Stop          ;04.12.2018;FEY;;LION;49;14500;7200;192;56;58;60;8400;3000;3764;3768;1;13011;35.14;37.34;34,6;BCS1388054;4;14
009638;19.12.2019;12:16:45;Cycle         ;04.12.2018;FEY;;LION;49;14500;7200;192;56;58;60;8400;3000;3776;3780;1;13013;31.44;30.94;32,7;BCS1388054;4;14
009638;20.12.2019;17:30:48;Stop          ;04.12.2018;FEY;;LION;49;14500;7200;224;57;94;100;8400;;4152;4153;1;13013;27.54;28.14;30,6;BCS1388054;4;14
009638;06.01.2020;06:34:50;Charge to 60% ;04.12.2018;FEY;;LION;49;14500;7200;192;57;92;98;8400;;4123;4123;1;13014;27.34;28.34;31,9;BCS1388054;4;14
009638;06.01.2020;09:30:33;Stop          ;04.12.2018;FEY;;LION;49;14500;7200;192;57;57;60;8400;3000;3770;3773;1;13012;34.24;35.84;33,7;BCS1388054;4;14
009638;06.01.2020;09:50:38;Fastcharge    ;04.12.2018;FEY;;LION;49;14500;7200;192;57;57;60;8400;3000;3779;3782;1;13013;32.64;31.64;32,7;BCS1388054;4;14
009638;06.01.2020;13:09:19;Stop          ;04.12.2018;FEY;;LION;49;14500;7200;224;57;94;100;8400;;4159;4159;1;13014;30.64;30.44;31,4;BCS1388054;4;14