File: reader/backup_20210405/Batterieverzeichnis/009617.txt
Serialnumber ; Date ; Time ; Action ; Date of Manufacture ; Manufacturer ; Battery Name ; Device-Chemistry ; Specification-Info ; Design-Capacity [mAh] ; Design-Voltage [mV] ; Battery Status ; Cycle Count ; SOC [%] ; Relativ SOC[%] ; Desired Voltage [mV]; Desired Current [mA]; Cell Voltage 1 [mV] ; Cell Voltage 2 [mV] ; Max_Error [%] ; Busvoltage[mV] ; Battery Temperature [°C] ; Charger Temperature [°C] ; Batterysystem ; Case ; PLace
009617;10.12.2019;15:28:47;Ladung auf 30% ;03.12.2018;FEY;;LION;49;14500;7200;224;43;93;100;8400;;4133;4133;1;13013;22.34;24.14;27,1;BCS1388054;3;2
009617;10.12.2019;20:47:21;Stop           ;03.12.2018;FEY;;LION;49;14500;7200;192;44;28;30;8400;3000;3559;3556;1;13011;33.54;34.34;33,5;BCS1388054;3;2
009617;11.12.2019;08:48:36;Fastcharge    ;03.12.2018;FEY;;LION;49;14500;7200;192;44;28;30;8400;3000;3567;3566;1;13011;26.14;28.04;31,9;BCS1388054;3;2
009617;11.12.2019;13:39:41;Stop           ;03.12.2018;FEY;;LION;49;14500;7200;224;44;94;100;8400;;4163;4163;1;13012;30.34;30.84;32,5;BCS1388054;3;2
009617;11.12.2019;15:46:24;Ladung auf 10% ;03.12.2018;FEY;;LION;49;14500;7200;224;44;95;100;8400;;4155;4155;1;13011;27.04;28.64;31,4;BCS1388054;3;2
009617;11.12.2019;22:48:44;Stop           ;03.12.2018;FEY;;LION;49;14500;7200;192;45;10;10;8400;3000;3352;3351;1;13011;34.34;34.64;33,6;BCS1388054;3;2
009617;12.12.2019;08:44:58;Normalcharge  ;03.12.2018;FEY;;LION;49;14500;7200;192;45;9;10;8400;3000;3362;3361;1;13011;26.24;28.24;31,9;BCS1388054;3;2
009617;12.12.2019;16:39:24;Stop           ;03.12.2018;FEY;;LION;49;14500;7200;224;45;95;100;8400;;4161;4162;1;13010;29.34;30.24;31,7;BCS1388054;3;2
009617;13.12.2019;10:47:57;Ladung auf 10% ;03.12.2018;FEY;;LION;49;14500;7200;224;45;95;100;8400;;4150;4150;1;13012;26.34;28.24;32,0;BCS1388054;3;2
009617;13.12.2019;15:42:18;Stop           ;03.12.2018;FEY;;LION;49;14500;7200;192;46;34;36;8400;3000;3499;3550;1;13535;33.04;38.54;34,6;BCS1388054;3;2
009617;13.12.2019;15:42:20;Cycle          ;03.12.2018;FEY;;LION;49;14500;7200;192;46;34;36;8400;3000;3499;3550;1;13535;33.04;38.54;34,6;BCS1388054;3;2
009617;14.12.2019;22:36:33;Stop           ;03.12.2018;FEY;;LION;49;14500;7200;224;47;92;100;8400;;4153;4150;1;13012;26.54;28.14;31,6;BCS1388054;3;2
009617;16.12.2019;07:43:10;Ladung auf 10% ;03.12.2018;FEY;;LION;49;14500;7200;224;47;93;100;8400;;4147;4144;1;13013;26.04;27.74;31,9;BCS1388054;3;2
009617;16.12.2019;14:34:27;Stop           ;03.12.2018;FEY;;LION;49;14500;7200;192;48;10;10;8400;3000;3366;3364;1;13011;32.84;33.04;32,5;BCS1388054;3;2
009617;16.12.2019;14:44:07;Ladung auf 90% ;03.12.2018;FEY;;LION;49;14500;7200;192;48;10;10;8400;3000;3368;3365;1;13012;32.24;31.54;31,7;BCS1388054;3;2
009617;16.12.2019;20:48:39;Stop           ;03.12.2018;FEY;;LION;49;14500;7200;192;48;84;90;8400;3000;4054;4054;1;13012;31.74;32.24;31,9;BCS1388054;3;2
009617;17.12.2019;08:37:44;Fastcharge    ;03.12.2018;FEY;;LION;49;14500;7200;192;48;84;90;8400;3000;4046;4045;1;13012;26.14;28.04;31,5;BCS1388054;3;2
009617;17.12.2019;10:30:44;Stop           ;03.12.2018;FEY;;LION;49;14500;7200;224;48;94;100;8400;;4161;4161;1;13012;27.84;29.54;31,4;BCS1388054;3;2
009617;17.12.2019;13:38:28;Ladung auf 10% ;03.12.2018;FEY;;LION;49;14500;7200;224;48;94;100;8400;;4151;4151;1;13012;26.54;28.24;30,8;BCS1388054;3;2
009617;17.12.2019;20:32:04;Stop           ;03.12.2018;FEY;;LION;49;14500;7200;192;49;10;10;8400;3000;3363;3362;1;13011;34.34;34.54;34,6;BCS1388054;3;2
009617;18.12.2019;08:31:22;Fastcharge    ;03.12.2018;FEY;;LION;49;14500;7200;192;49;10;10;8400;3000;3373;3372;1;13012;26.24;28.14;31,6;BCS1388054;3;2
009617;18.12.2019;14:26:33;Stop           ;03.12.2018;FEY;;LION;49;14500;7200;224;49;94;100;8400;;4162;4164;1;13012;30.34;30.84;32,5;BCS1388054;3;2
009617;19.12.2019;08:23:54;Ladung auf 60% ;03.12.2018;FEY;;LION;49;14500;7200;224;49;95;100;8400;;4151;4152;1;13011;26.14;28.04;31,6;BCS1388054;3;2
009617;19.12.2019;11:28:29;Stop           ;03.12.2018;FEY;;LION;49;14500;7200;192;50;57;60;8400;3000;3763;3762;1;13011;34.04;36.14;35,1;BCS1388054;3;2
009617;19.12.2019;12:16:41;Cycle          ;03.12.2018;FEY;;LION;49;14500;7200;192;50;57;60;8400;3000;3776;3776;1;13012;30.84;30.54;32,7;BCS1388054;3;2
009617;20.12.2019;17:23:28;Stop           ;03.12.2018;FEY;;LION;49;14500;7200;224;51;93;100;8400;;4152;4151;1;13013;26.64;28.34;31,9;BCS1388054;3;2
009617;06.01.2020;06:34:46;Ladung auf 60% ;03.12.2018;FEY;;LION;49;14500;7200;224;51;92;99;8400;;4124;4122;1;13012;26.24;28.04;31,9;BCS1388054;3;2
009617;06.01.2020;09:29:20;Stop           ;03.12.2018;FEY;;LION;49;14500;7200;192;51;56;60;8400;3000;3763;3760;1;13011;33.24;35.04;34,2;BCS1388054;3;2
009617;06.01.2020;09:50:34;Fastcharge    ;03.12.2018;FEY;;LION;49;14500;7200;192;51;56;60;8400;3000;3774;3771;1;13012;31.84;31.34;32,7;BCS1388054;3;2
009617;06.01.2020;13:06:26;Stop           ;03.12.2018;FEY;;LION;49;14500;7200;224;51;93;100;8400;;4162;4160;1;13013;29.84;30.64;32,1;BCS1388054;3;2