File: reader/Batterieverzeichnis_new/001095.txt
Serialnumber ; Date ; Time ; Action ; Date of Manufacture ; Manufacturer ; Battery Name ; Device-Chemistry ; Specification-Info ; Design-Capacity [mAh] ; Design-Voltage [mV] ; Battery Status ; Cycle Count ; SOC [%] ; Relativ SOC[%] ; Desired Voltage [mV]; Desired Current [mA]; Cell Voltage 1 [mV] ; Cell Voltage 2 [mV] ; Max_Error [%] ; Busvoltage[mV] ; Battery Temperature [°C] ; Charger Temperature [°C] ; Batterysystem ; Case ; PLace
001095;10.12.2019;15:29:09;Charge to 30% ;15.02.2018;FEY;;LION;49;14500;7200;224;12;94;99;8400;;4123;4124;1;13012;22.84;25.64;27,1;BCS1388054;6;8
001095;10.12.2019;20:46:41;Stop          ;15.02.2018;FEY;;LION;49;14500;7200;192;13;29;30;8400;3000;3555;3555;1;13010;33.74;35.34;33,6;BCS1388054;6;8
001095;11.12.2019;08:49:03;Fastcharge    ;15.02.2018;FEY;;LION;49;14500;7200;192;13;29;30;8400;3000;3566;3566;1;13011;26.74;28.54;31,9;BCS1388054;6;8
001095;11.12.2019;13:39:30;Stop          ;15.02.2018;FEY;;LION;49;14500;7200;224;13;96;100;8400;;4163;4163;1;13012;31.14;31.04;32,5;BCS1388054;6;8
001095;11.12.2019;15:46:47;Charge to 10% ;15.02.2018;FEY;;LION;49;14500;7200;224;13;98;100;8400;;4156;4157;1;13013;27.74;28.94;31,4;BCS1388054;6;8
001095;11.12.2019;22:52:10;Stop          ;15.02.2018;FEY;;LION;49;14500;7200;192;14;10;10;8400;3000;3353;3352;1;13012;34.64;34.34;33,0;BCS1388054;6;8
001095;12.12.2019;08:45:18;Normalcharge  ;15.02.2018;FEY;;LION;49;14500;7200;192;14;9;9;8400;3000;3363;3362;1;13012;26.94;28.64;31,7;BCS1388054;6;8
001095;12.12.2019;16:41:29;Stop          ;15.02.2018;FEY;;LION;49;14500;7200;224;14;97;100;8400;;4163;4163;1;13012;30.14;30.34;31,5;BCS1388054;6;8
001095;13.12.2019;10:48:09;Charge to 10% ;15.02.2018;FEY;;LION;49;14500;7200;224;14;97;100;8400;;4152;4152;1;13012;26.94;28.84;32,0;BCS1388054;6;8
001095;13.12.2019;13:51:54;Stop          ;15.02.2018;FEY;;LION;49;14500;7200;192;15;58;61;8400;3000;3686;3735;1;13496;34.84;40.64;36,1;BCS1388054;6;8
001095;13.12.2019;13:53:13;Fastcharge    ;15.02.2018;FEY;;LION;49;14500;7200;192;15;58;61;8400;3000;3769;3768;1;13016;34.84;38.44;35,8;BCS1388054;6;8
001095;13.12.2019;13:53:19;Stop          ;15.02.2018;FEY;;LION;49;14500;7200;192;15;58;61;8400;3000;3769;3768;1;13005;34.84;38.24;35,8;BCS1388054;6;8
001095;13.12.2019;13:53:25;Normalcharge  ;15.02.2018;FEY;;LION;49;14500;7200;192;15;58;61;8400;3000;3769;3769;1;13015;34.84;38.24;35,8;BCS1388054;6;8
001095;13.12.2019;20:04:59;Stop          ;15.02.2018;FEY;;LION;49;14500;7200;224;15;97;100;8400;;4156;4155;1;13019;28.54;29.64;32,0;BCS1388054;6;8
001095;16.12.2019;07:43:27;Charge to 10% ;15.02.2018;FEY;;LION;49;14500;7200;224;15;97;100;8400;;4147;4146;1;13019;26.84;27.74;31,7;BCS1388054;6;8
001095;16.12.2019;14:43:10;Stop          ;15.02.2018;FEY;;LION;49;14500;7200;192;16;10;10;8400;3000;3350;3349;1;13019;32.84;33.34;31,7;BCS1388054;6;8
001095;16.12.2019;14:44:21;Charge to 90% ;15.02.2018;FEY;;LION;49;14500;7200;192;16;10;10;8400;3000;3352;3351;1;13019;32.74;32.34;31,9;BCS1388054;6;8
001095;16.12.2019;20:54:26;Stop          ;15.02.2018;FEY;;LION;49;14500;7200;192;16;86;90;8400;3000;4052;4052;1;13020;33.04;33.34;32,1;BCS1388054;6;8
001095;17.12.2019;08:37:57;Fastcharge    ;15.02.2018;FEY;;LION;49;14500;7200;192;16;86;90;8400;3000;4039;4038;1;13019;26.84;28.54;31,6;BCS1388054;6;8
001095;17.12.2019;13:38:40;Charge to 10% ;15.02.2018;FEY;;LION;49;14500;7200;224;16;97;100;8400;;4154;4152;1;13018;27.14;28.54;30,8;BCS1388054;6;8
001095;17.12.2019;20:41:41;Stop          ;15.02.2018;FEY;;LION;49;14500;7200;192;17;10;10;8400;3000;3348;3346;1;13019;34.64;35.44;32,6;BCS1388054;6;8
001095;18.12.2019;08:31:34;Fastcharge    ;15.02.2018;FEY;;LION;49;14500;7200;192;17;9;9;8400;3000;3362;3360;1;13018;26.94;28.64;31,6;BCS1388054;6;8
001095;18.12.2019;14:33:31;Stop          ;15.02.2018;FEY;;LION;49;14500;7200;224;17;95;100;8400;;4161;4159;1;13020;31.04;30.54;31,4;BCS1388054;6;8
001095;19.12.2019;08:24:06;Charge to 60% ;15.02.2018;FEY;;LION;49;14500;7200;224;17;96;100;8400;;4151;4149;1;13019;26.84;28.54;31,5;BCS1388054;6;8
001095;19.12.2019;11:34:24;Stop          ;15.02.2018;FEY;;LION;49;14500;7200;192;17;58;60;8400;3000;3773;3770;1;13017;34.04;34.14;33,5;BCS1388054;6;8
001095;19.12.2019;12:16:53;Cycle         ;15.02.2018;FEY;;LION;49;14500;7200;192;17;58;60;8400;3000;3782;3780;1;13018;31.24;30.74;32,7;BCS1388054;6;8
001095;20.12.2019;17:31:05;Stop          ;15.02.2018;FEY;;LION;49;14500;7200;224;19;95;100;8400;;4155;4154;1;13020;27.34;28.54;30,6;BCS1388054;6;8
001095;06.01.2020;06:34:58;Charge to 60% ;15.02.2018;FEY;;LION;49;14500;7200;192;19;94;98;8400;;4124;4123;1;13020;27.14;28.64;31,9;BCS1388054;6;8
001095;06.01.2020;09:30:42;Stop          ;15.02.2018;FEY;;LION;49;14500;7200;192;19;58;60;8400;3000;3770;3768;1;13019;33.34;35.24;33,7;BCS1388054;6;8
001095;06.01.2020;09:50:46;Fastcharge    ;15.02.2018;FEY;;LION;49;14500;7200;192;19;58;60;8400;3000;3782;3781;1;13019;32.14;31.24;32,7;BCS1388054;6;8
001095;06.01.2020;13:06:22;Stop          ;15.02.2018;FEY;;LION;49;14500;7200;224;19;96;100;8400;;4160;4160;1;13020;30.64;30.54;32,1;BCS1388054;6;8