File: reader/Batterieverzeichnis_new/001089.txt
Serialnumber ; Date ; Time ; Action ; Date of Manufacture ; Manufacturer ; Battery Name ; Device-Chemistry ; Specification-Info ; Design-Capacity [mAh] ; Design-Voltage [mV] ; Battery Status ; Cycle Count ; SOC [%] ; Relativ SOC[%] ; Desired Voltage [mV]; Desired Current [mA]; Cell Voltage 1 [mV] ; Cell Voltage 2 [mV] ; Max_Error [%] ; Busvoltage[mV] ; Battery Temperature [°C] ; Charger Temperature [°C] ; Batterysystem ; Case ; PLace
001089;10.12.2019;15:29:09;Charge to 30% ;15.02.2018;FEY;;LION;49;14500;7200;224;13;92;99;8400;;4122;4122;1;13011;22.34;25.94;27,1;BCS1388054;6;14
001089;10.12.2019;20:46:41;Stop          ;15.02.2018;FEY;;LION;49;14500;7200;192;14;29;30;8400;3000;3560;3559;1;13009;33.44;35.94;33,6;BCS1388054;6;14
001089;11.12.2019;08:49:03;Fastcharge    ;15.02.2018;FEY;;LION;49;14500;7200;192;14;29;30;8400;3000;3567;3566;1;13010;26.14;28.94;31,9;BCS1388054;6;14
001089;11.12.2019;13:39:30;Stop          ;15.02.2018;FEY;;LION;49;14500;7200;224;14;94;100;8400;;4162;4163;1;13010;30.44;31.64;32,5;BCS1388054;6;14
001089;11.12.2019;15:46:47;Charge to 10% ;15.02.2018;FEY;;LION;49;14500;7200;224;14;96;100;8400;;4156;4156;1;13009;27.04;29.44;31,4;BCS1388054;6;14
001089;11.12.2019;22:52:10;Stop          ;15.02.2018;FEY;;LION;49;14500;7200;192;15;10;10;8400;3000;3355;3355;1;13010;34.14;35.34;33,0;BCS1388054;6;14
001089;12.12.2019;08:45:18;Normalcharge  ;15.02.2018;FEY;;LION;49;14500;7200;192;15;9;9;8400;3000;3364;3364;1;13010;26.34;29.14;31,7;BCS1388054;6;14
001089;12.12.2019;16:41:29;Stop          ;15.02.2018;FEY;;LION;49;14500;7200;224;15;95;100;8400;;4161;4162;1;13010;29.34;30.94;31,5;BCS1388054;6;14
001089;13.12.2019;10:48:09;Charge to 10% ;15.02.2018;FEY;;LION;49;14500;7200;224;15;95;100;8400;;4151;4151;1;13010;26.34;29.14;32,0;BCS1388054;6;14
001089;13.12.2019;13:51:54;Stop          ;15.02.2018;FEY;;LION;49;14500;7200;192;16;57;60;8400;3000;3678;3728;1;13497;34.64;44.44;36,1;BCS1388054;6;14
001089;16.12.2019;07:43:34;Charge to 10% ;15.02.2018;FEY;;LION;49;14500;7200;192;16;57;60;8400;3000;3781;3780;1;13029;22.44;26.14;31,7;BCS1388054;7;3
001089;16.12.2019;11:52:34;Stop          ;15.02.2018;FEY;;LION;49;14500;7200;192;16;10;10;8400;3000;3360;3360;1;13027;31.34;31.64;34,7;BCS1388054;7;3
001089;16.12.2019;14:44:25;Charge to 90% ;15.02.2018;FEY;;LION;49;14500;7200;192;16;10;10;8400;3000;3365;3365;1;13028;28.34;29.04;31,7;BCS1388054;7;3
001089;16.12.2019;20:53:58;Stop          ;15.02.2018;FEY;;LION;49;14500;7200;192;16;84;90;8400;3000;4052;4052;1;13028;30.54;29.94;32,1;BCS1388054;7;3
001089;17.12.2019;08:38:01;Fastcharge    ;15.02.2018;FEY;;LION;49;14500;7200;192;16;85;90;8400;3000;4043;4043;1;13029;25.64;27.54;31,6;BCS1388054;7;3
001089;17.12.2019;10:36:25;Stop          ;15.02.2018;FEY;;LION;49;14500;7200;224;16;94;100;8400;;4159;4160;1;13029;27.14;28.34;31,5;BCS1388054;7;3
001089;17.12.2019;13:38:44;Charge to 10% ;15.02.2018;FEY;;LION;49;14500;7200;224;16;94;100;8400;;4152;4152;1;13028;26.04;27.54;30,8;BCS1388054;7;3
001089;17.12.2019;20:42:03;Stop          ;15.02.2018;FEY;;LION;49;14500;7200;192;18;10;10;8400;3000;3360;3360;1;13029;32.34;31.14;32,6;BCS1388054;7;3
001089;18.12.2019;08:31:43;Fastcharge    ;15.02.2018;FEY;;LION;49;14500;7200;192;18;9;9;8400;3000;3369;3368;1;13028;25.84;27.54;31,6;BCS1388054;7;3
001089;18.12.2019;14:30:48;Stop          ;15.02.2018;FEY;;LION;49;14500;7200;224;18;93;100;8400;;4161;4161;1;13028;28.84;29.04;31,6;BCS1388054;7;3
001089;19.12.2019;08:24:17;Charge to 60% ;15.02.2018;FEY;;LION;49;14500;7200;224;18;94;100;8400;;4150;4150;1;13028;25.74;27.54;31,6;BCS1388054;7;3
001089;19.12.2019;11:28:26;Stop          ;15.02.2018;FEY;;LION;49;14500;7200;192;18;57;60;8400;3000;3772;3772;1;13026;32.54;33.14;35,1;BCS1388054;7;3
001089;19.12.2019;12:16:57;Cycle         ;15.02.2018;FEY;;LION;49;14500;7200;192;18;57;60;8400;3000;3784;3784;1;13028;29.24;29.24;32,7;BCS1388054;7;3
001089;20.12.2019;17:22:28;Stop          ;15.02.2018;FEY;;LION;49;14500;7200;224;19;94;100;8400;;4155;4155;1;13029;26.04;27.74;31,9;BCS1388054;7;3
001089;06.01.2020;06:35:02;Charge to 60% ;15.02.2018;FEY;;LION;49;14500;7200;192;19;92;98;8400;;4123;4124;1;13030;25.84;27.54;31,9;BCS1388054;7;3
001089;06.01.2020;09:29:52;Stop          ;15.02.2018;FEY;;LION;49;14500;7200;192;20;57;60;8400;3000;3767;3767;1;13027;31.74;32.34;34,0;BCS1388054;7;3
001089;06.01.2020;09:50:50;Fastcharge    ;15.02.2018;FEY;;LION;49;14500;7200;192;20;57;60;8400;3000;3778;3779;1;13028;30.24;29.74;32,7;BCS1388054;7;3
001089;06.01.2020;13:05:11;Stop          ;15.02.2018;FEY;;LION;49;14500;7200;224;20;94;100;8400;;4161;4162;1;13029;28.44;29.04;32,4;BCS1388054;7;3