File: reader/Batterieverzeichnis_new/009538.txt
Serialnumber ; Date ; Time ; Action ; Date of Manufacture ; Manufacturer ; Battery Name ; Device-Chemistry ; Specification-Info ; Design-Capacity [mAh] ; Design-Voltage [mV] ; Battery Status ; Cycle Count ; SOC [%] ; Relativ SOC[%] ; Desired Voltage [mV]; Desired Current [mA]; Cell Voltage 1 [mV] ; Cell Voltage 2 [mV] ; Max_Error [%] ; Busvoltage[mV] ; Battery Temperature [°C] ; Charger Temperature [°C] ; Batterysystem ; Case ; PLace
009538;10.12.2019;15:29:09;Charge to 30% ;04.12.2018;FEY;;LION;49;14500;7200;224;29;92;99;8400;;4120;4121;1;13011;22.84;23.64;27,1;BCS1388054;6;6
009538;10.12.2019;20:46:41;Stop          ;04.12.2018;FEY;;LION;49;14500;7200;192;30;29;30;8400;3000;3558;3559;1;13009;32.04;29.94;33,6;BCS1388054;6;6
009538;11.12.2019;08:49:03;Fastcharge    ;04.12.2018;FEY;;LION;49;14500;7200;192;30;29;30;8400;3000;3568;3569;1;13010;26.34;26.24;31,9;BCS1388054;6;6
009538;11.12.2019;13:39:30;Stop          ;04.12.2018;FEY;;LION;49;14500;7200;224;30;95;100;8400;;4163;4164;1;13010;28.74;27.54;32,5;BCS1388054;6;6
009538;11.12.2019;15:46:47;Charge to 10% ;04.12.2018;FEY;;LION;49;14500;7200;224;30;97;100;8400;;4154;4155;1;13009;26.94;26.14;31,4;BCS1388054;6;6
009538;11.12.2019;22:52:10;Stop          ;04.12.2018;FEY;;LION;49;14500;7200;192;31;10;10;8400;3000;3352;3353;1;13008;32.54;29.74;33,0;BCS1388054;6;6
009538;12.12.2019;08:45:18;Normalcharge  ;04.12.2018;FEY;;LION;49;14500;7200;192;31;9;10;8400;3000;3363;3364;1;13009;26.54;26.14;31,7;BCS1388054;6;6
009538;12.12.2019;16:41:29;Stop          ;04.12.2018;FEY;;LION;49;14500;7200;224;31;96;100;8400;;4162;4163;1;13009;28.34;27.14;31,5;BCS1388054;6;6
009538;13.12.2019;10:48:09;Charge to 10% ;04.12.2018;FEY;;LION;49;14500;7200;224;31;97;100;8400;;4150;4151;1;13010;26.54;26.44;32,0;BCS1388054;6;6
009538;13.12.2019;13:51:54;Stop          ;04.12.2018;FEY;;LION;49;14500;7200;192;31;58;61;8400;3000;3678;3733;1;13497;33.34;33.64;36,1;BCS1388054;6;6
009538;13.12.2019;13:53:13;Fastcharge    ;04.12.2018;FEY;;LION;49;14500;7200;192;31;58;61;8400;3000;3766;3767;1;13007;33.34;31.94;35,8;BCS1388054;6;6
009538;13.12.2019;13:53:19;Stop          ;04.12.2018;FEY;;LION;49;14500;7200;192;31;58;61;8400;3000;3766;3767;1;12996;33.34;31.84;35,8;BCS1388054;6;6
009538;13.12.2019;13:53:25;Normalcharge  ;04.12.2018;FEY;;LION;49;14500;7200;192;31;58;61;8400;3000;3767;3768;1;13007;33.34;31.84;35,8;BCS1388054;6;6
009538;13.12.2019;20:04:59;Stop          ;04.12.2018;FEY;;LION;49;14500;7200;224;31;97;100;8400;;4154;4155;1;13009;27.64;27.14;32,0;BCS1388054;6;6
009538;16.12.2019;07:43:27;Charge to 10% ;04.12.2018;FEY;;LION;49;14500;7200;224;31;96;100;8400;;4146;4146;1;13011;26.24;25.04;31,7;BCS1388054;6;6
009538;16.12.2019;14:43:10;Stop          ;04.12.2018;FEY;;LION;49;14500;7200;192;32;10;10;8400;3000;3352;3353;1;13010;30.64;27.84;31,7;BCS1388054;6;6
009538;16.12.2019;14:44:21;Charge to 90% ;04.12.2018;FEY;;LION;49;14500;7200;192;32;10;10;8400;3000;3353;3354;1;13010;30.64;27.74;31,9;BCS1388054;6;6
009538;16.12.2019;20:54:26;Stop          ;04.12.2018;FEY;;LION;49;14500;7200;192;32;86;90;8400;3000;4054;4056;1;13010;30.44;28.24;32,1;BCS1388054;6;6
009538;17.12.2019;08:37:57;Fastcharge    ;04.12.2018;FEY;;LION;49;14500;7200;192;32;86;90;8400;3000;4042;4043;1;13011;26.34;26.14;31,6;BCS1388054;6;6
009538;17.12.2019;13:38:40;Charge to 10% ;04.12.2018;FEY;;LION;49;14500;7200;224;32;96;100;8400;;4153;4154;1;13010;26.64;26.14;30,8;BCS1388054;6;6
009538;17.12.2019;20:41:41;Stop          ;04.12.2018;FEY;;LION;49;14500;7200;192;34;10;10;8400;3000;3349;3350;1;13010;32.44;29.44;32,6;BCS1388054;6;6
009538;18.12.2019;08:31:34;Fastcharge    ;04.12.2018;FEY;;LION;49;14500;7200;192;34;9;9;8400;3000;3362;3364;1;13010;26.54;26.04;31,6;BCS1388054;6;6
009538;18.12.2019;14:33:31;Stop          ;04.12.2018;FEY;;LION;49;14500;7200;224;34;95;100;8400;;4163;4165;1;13011;28.74;27.14;31,4;BCS1388054;6;6
009538;19.12.2019;08:24:06;Charge to 60% ;04.12.2018;FEY;;LION;49;14500;7200;224;34;96;100;8400;;4150;4152;1;13010;26.44;26.14;31,5;BCS1388054;6;6
009538;19.12.2019;11:34:24;Stop          ;04.12.2018;FEY;;LION;49;14500;7200;192;34;58;60;8400;3000;3768;3771;1;13010;32.44;29.74;33,5;BCS1388054;6;6
009538;19.12.2019;12:16:53;Cycle         ;04.12.2018;FEY;;LION;49;14500;7200;192;34;58;60;8400;3000;3778;3781;1;13010;29.24;27.54;32,7;BCS1388054;6;6
009538;20.12.2019;17:31:05;Stop          ;04.12.2018;FEY;;LION;49;14500;7200;224;35;94;100;8400;;4153;4154;1;13011;26.54;25.84;30,6;BCS1388054;6;6
009538;06.01.2020;06:34:58;Charge to 60% ;04.12.2018;FEY;;LION;49;14500;7200;224;35;93;99;8400;;4123;4123;1;13011;26.54;26.14;31,9;BCS1388054;6;6
009538;06.01.2020;09:30:42;Stop          ;04.12.2018;FEY;;LION;49;14500;7200;192;36;57;60;8400;3000;3760;3762;1;13011;31.84;29.94;33,7;BCS1388054;6;6
009538;06.01.2020;09:50:46;Fastcharge    ;04.12.2018;FEY;;LION;49;14500;7200;192;36;57;60;8400;3000;3775;3777;1;13011;30.24;28.04;32,7;BCS1388054;6;6
009538;06.01.2020;13:06:22;Stop          ;04.12.2018;FEY;;LION;49;14500;7200;224;36;95;100;8400;;4163;4164;1;13012;28.44;27.14;32,1;BCS1388054;6;6