File: reader/Batterieverzeichnis_new/009546.txt
Serialnumber ; Date ; Time ; Action ; Date of Manufacture ; Manufacturer ; Battery Name ; Device-Chemistry ; Specification-Info ; Design-Capacity [mAh] ; Design-Voltage [mV] ; Battery Status ; Cycle Count ; SOC [%] ; Relativ SOC[%] ; Desired Voltage [mV]; Desired Current [mA]; Cell Voltage 1 [mV] ; Cell Voltage 2 [mV] ; Max_Error [%] ; Busvoltage[mV] ; Battery Temperature [°C] ; Charger Temperature [°C] ; Batterysystem ; Case ; PLace
009546;07.12.2020;04:14:28;Cycle         ;03.12.2018;FEY;;LION;49;14500;7200;16576;1;96;98;;;4133;4134;1;13001;25.54;26.94;30,3;BCS1388054;4;6
009546;08.12.2020;16:19:56;Stop          ;03.12.2018;FEY;;LION;49;14500;7200;16576;1;96;98;;;4131;4132;1;13001;27.54;28.24;31,9;BCS1388054;4;6
009546;12.01.2021;04:17:36;Charge to 90% ;03.12.2018;FEY;;LION;49;14500;7200;16576;1;95;97;;;4119;4120;1;13005;22.94;23.04;23,6;BCS1388054;5;10
009546;12.01.2021;05:15:37;Stop          ;03.12.2018;FEY;;LION;49;14500;7200;192;1;90;90;8400;3000;4056;4057;1;12999;26.84;27.74;31,6;BCS1388054;5;10
009546;12.01.2021;05:21:53;Cycle         ;03.12.2018;FEY;;LION;49;14500;7200;192;1;90;90;8400;3000;4057;4058;1;12999;26.84;27.34;30,6;BCS1388054;5;10
009546;13.01.2021;08:31:10;Stop          ;03.12.2018;FEY;;LION;49;14500;7200;224;3;96;100;8400;;4156;4157;1;13001;26.94;27.34;31,1;BCS1388054;5;10
009546;21.02.2021;13:44:55;Normalcharge  ;03.12.2018;FEY;;LION;49;14500;7200;192;3;59;61;8400;3000;3768;3770;1;13009;22.74;22.24;27,7;BCS1388054;5;1
009546;21.02.2021;19:31:36;Stop          ;03.12.2018;FEY;;LION;49;14500;7200;224;3;97;100;8400;;4154;4155;1;13006;26.74;27.74;30,6;BCS1388054;5;1
009546;06.04.2021;08:39:16;Normalcharge  ;03.12.2018;FEY;;LION;49;14500;7200;224;3;95;99;8400;;4128;4129;1;12983;21.04;24.34;28,1;BCS1388054;6;16
009546;06.04.2021;08:40:04;Stop          ;03.12.2018;FEY;;LION;49;14500;7200;224;3;95;99;8400;;4128;4129;1;12963;21.04;24.44;28,5;BCS1388054;6;16
009546;08.04.2021;07:58:44;Normalcharge  ;03.12.2018;FEY;;LION;49;14500;7200;224;3;95;99;8400;;4128;4129;1;12988;25.04;24.04;26,4;BCS1388054;6;16
009546;08.04.2021;07:59:23;Stop          ;03.12.2018;FEY;;LION;49;14500;7200;224;3;95;99;8400;;4128;4128;1;12987;25.04;24.54;26,7;BCS1388054;6;16
009546;08.04.2021;10:36:16;Normalcharge  ;03.12.2018;FEY;;LION;49;14500;7200;224;3;95;99;8400;;4128;4128;1;12986;25.24;25.04;28,6;BCS1388054;6;16
009546;08.04.2021;10:37:11;Stop          ;03.12.2018;FEY;;LION;49;14500;7200;224;3;95;99;8400;;4128;4128;1;12964;25.24;25.44;29,2;BCS1388054;6;16
009546;18.04.2021;08:34:33;Normalcharge  ;03.12.2018;FEY;;LION;49;14500;7200;224;3;95;99;8400;;4124;4124;1;12984;25.94;25.94;28,2;BCS1388054;6;16
009546;18.04.2021;08:34:41;Stop          ;03.12.2018;FEY;;LION;49;14500;7200;224;3;95;99;8400;;4124;4125;1;12983;25.94;25.94;28,2;BCS1388054;6;16
009546;04.08.2021;07:24:35;Normalcharge  ;03.12.2018;FEY;;LION;49;14500;7200;192;3;93;96;8400;;4093;4093;1;12981;29.94;29.54;31,5;BCS1388054;6;16
009546;04.08.2021;07:25:17;Stop          ;03.12.2018;FEY;;LION;49;14500;7200;192;3;93;96;8400;;4093;4093;1;12966;29.94;29.94;31,6;BCS1388054;6;16
009546;22.08.2021;11:37:21;Normalcharge  ;03.12.2018;FEY;;LION;49;14500;7200;192;3;88;92;8400;3000;4045;4046;1;12991;21.34;27.94;31,9;BCS1388054;5;13
009546;22.08.2021;11:38:04;Stop          ;03.12.2018;FEY;;LION;49;14500;7200;128;3;88;92;8400;3000;4079;4064;1;12749;21.44;29.44;32,0;BCS1388054;5;13
009546;12.10.2021;12:59:04;Normalcharge  ;03.12.2018;FEY;;LION;49;14500;7200;192;3;87;90;8400;3000;4030;4031;1;13030;23.44;26.44;28,5;BCS1388054;7;16
009546;12.10.2021;12:59:37;Stop          ;03.12.2018;FEY;;LION;49;14500;7200;128;3;87;90;8400;3000;4044;4038;1;12933;23.54;27.54;28,6;BCS1388054;7;16
009546;01.11.2021;09:52:05;Normalcharge  ;03.12.2018;FEY;;LION;49;14500;7200;192;3;86;89;8400;3000;4023;4024;1;13009;25.24;25.34;26,3;BCS1388054;4;1
009546;01.11.2021;09:53:34;Stop          ;03.12.2018;FEY;;LION;49;14500;7200;128;3;86;89;8400;3000;4109;4070;1;12641;25.24;28.94;27,1;BCS1388054;4;1
009546;01.11.2021;10:02:14;Normalcharge  ;03.12.2018;FEY;;LION;49;14500;7200;192;3;86;89;8400;3000;4026;4027;1;13005;25.34;28.04;29,5;BCS1388054;4;1
009546;01.11.2021;10:03:16;Stop          ;03.12.2018;FEY;;LION;49;14500;7200;128;3;86;89;8400;3000;4102;4068;1;12610;25.44;30.14;29,3;BCS1388054;4;1
009546;28.12.2021;09:01:26;Normalcharge  ;03.12.2018;FEY;;LION;49;14500;7200;192;3;84;88;8400;3000;4008;4009;1;13006;23.64;23.84;25,3;BCS1388054;3;18
009546;28.12.2021;09:02:25;Stop           ;03.12.2018;FEY;;LION;49;14500;7200;128;3;85;88;8400;3000;4101;4058;1;12535;23.64;26.44;25,8;BCS1388054;3;18
009546;13.03.2022;12:10:09;Normalcharge  ;03.12.2018;FEY;;LION;49;14500;7200;192;4;34;36;8400;3000;3576;3576;1;13018;23.94;23.44;25,6;BCS1388054;3;17
009546;13.03.2022;12:10:50;Stop           ;03.12.2018;FEY;;LION;49;14500;7200;128;4;34;36;8400;3000;3613;3592;1;12750;23.94;25.04;25,7;BCS1388054;3;17
009546;14.03.2022;10:33:26;Normalcharge  ;03.12.2018;FEY;;LION;49;14500;7200;192;4;34;36;8400;3000;3576;3576;1;13021;23.94;25.04;25,0;BCS1388054;7;10
009546;14.03.2022;10:37:46;Normalcharge  ;03.12.2018;FEY;;LION;49;14500;7200;128;4;35;36;8400;3000;3674;3627;1;12727;24.24;30.44;27,9;BCS1388054;7;10
009546;14.03.2022;10:37:57;Stop          ;03.12.2018;FEY;;LION;49;14500;7200;128;4;35;36;8400;3000;3675;3625;1;12730;24.24;30.54;27,9;BCS1388054;7;10
009546;05.04.2022;09:15:59;Charge to 60% ;03.12.2018;FEY;;LION;49;14500;7200;192;4;36;37;8400;3000;3579;3579;1;13016;25.24;26.84;26,7;BCS1388054;6;15
009546;05.04.2022;12:05:14;Stop          ;03.12.2018;FEY;;LION;49;14500;7200;192;4;57;60;8400;3000;3729;3729;1;12993;27.74;29.94;28,9;BCS1388054;6;15
009546;17.05.2022;08:54:36;Normalcharge  ;03.12.2018;FEY;;LION;49;14500;7200;192;4;54;56;8400;3000;3711;3711;1;13024;28.64;29.64;31,0;BCS1388054;7;13
009546;17.05.2022;13:41:52;Stop          ;03.12.2018;FEY;;LION;49;14500;7200;224;4;97;100;8400;;4160;4161;1;12956;32.84;34.14;34,0;BCS1388054;7;13