File: reader/Batterieverzeichnis_new/009514.txt
Serialnumber ; Date ; Time ; Action ; Date of Manufacture ; Manufacturer ; Battery Name ; Device-Chemistry ; Specification-Info ; Design-Capacity [mAh] ; Design-Voltage [mV] ; Battery Status ; Cycle Count ; SOC [%] ; Relativ SOC[%] ; Desired Voltage [mV]; Desired Current [mA]; Cell Voltage 1 [mV] ; Cell Voltage 2 [mV] ; Max_Error [%] ; Busvoltage[mV] ; Battery Temperature [°C] ; Charger Temperature [°C] ; Batterysystem ; Case ; PLace
009514;12.01.2021;04:17:22;Charge to 90% ;04.12.2018;FEY;;LION;49;14500;7200;16576;2;97;97;;;4136;4137;1;13006;23.14;24.04;23,5;BCS1388054;2;4
009514;12.01.2021;04:54:21;Stop          ;04.12.2018;FEY;;LION;49;14500;7200;192;2;90;90;8400;3000;4056;4055;1;12996;27.04;30.64;31,9;BCS1388054;2;4
009514;12.01.2021;05:21:40;Cycle         ;04.12.2018;FEY;;LION;49;14500;7200;192;2;90;90;8400;3000;4065;4065;1;12998;27.24;28.54;30,6;BCS1388054;2;4
009514;13.01.2021;08:20:19;Stop          ;04.12.2018;FEY;;LION;49;14500;7200;224;3;96;100;8400;;4156;4158;1;13000;27.04;28.34;30,8;BCS1388054;2;4
009514;21.02.2021;13:43:32;Normalcharge  ;04.12.2018;FEY;;LION;49;14500;7200;192;3;64;66;8400;3000;3811;3813;1;12987;23.34;25.04;27,5;BCS1388054;2;18
009514;21.02.2021;19:27:00;Stop          ;04.12.2018;FEY;;LION;49;14500;7200;224;3;97;100;8400;;4154;4155;1;12986;26.64;28.14;31,1;BCS1388054;2;18
009514;06.04.2021;08:39:21;Normalcharge  ;04.12.2018;FEY;;LION;49;14500;7200;224;3;95;99;8400;;4128;4129;1;13029;21.84;24.64;28,1;BCS1388054;7;13
009514;06.04.2021;08:40:08;Stop          ;04.12.2018;FEY;;LION;49;14500;7200;224;3;95;99;8400;;4129;4130;1;12956;21.94;24.94;28,5;BCS1388054;7;13
009514;08.04.2021;07:59:03;Normalcharge  ;04.12.2018;FEY;;LION;49;14500;7200;224;3;95;99;8400;;4128;4129;1;13030;25.24;24.94;26,4;BCS1388054;7;13
009514;08.04.2021;07:59:16;Stop          ;04.12.2018;FEY;;LION;49;14500;7200;224;3;95;99;8400;;4128;4129;1;13028;25.24;25.04;26,6;BCS1388054;7;13
009514;08.04.2021;10:36:43;Normalcharge  ;04.12.2018;FEY;;LION;49;14500;7200;224;3;95;99;8400;;4128;4129;1;13029;25.44;25.94;28,9;BCS1388054;7;13
009514;08.04.2021;10:37:15;Stop          ;04.12.2018;FEY;;LION;49;14500;7200;224;3;95;99;8400;;4128;4129;1;12967;25.44;26.14;29,2;BCS1388054;7;13
009514;18.04.2021;08:34:46;Normalcharge  ;04.12.2018;FEY;;LION;49;14500;7200;192;3;95;98;8400;;4124;4125;1;13027;26.14;26.64;28,2;BCS1388054;7;13
009514;18.04.2021;08:34:54;Stop          ;04.12.2018;FEY;;LION;49;14500;7200;192;3;95;98;8400;;4124;4125;1;13024;26.14;26.64;28,4;BCS1388054;7;13
009514;04.08.2021;07:24:29;Normalcharge  ;04.12.2018;FEY;;LION;49;14500;7200;192;3;93;96;8400;;4092;4093;1;13024;30.04;30.14;31,5;BCS1388054;7;13
009514;04.08.2021;07:25:08;Stop          ;04.12.2018;FEY;;LION;49;14500;7200;192;3;93;96;8400;;4092;4093;1;12980;30.14;30.44;31,6;BCS1388054;7;13
009514;14.10.2021;12:40:04;Normalcharge  ;04.12.2018;FEY;;LION;49;14500;7200;192;3;89;92;8400;3000;4052;4054;1;13015;25.54;25.84;27,9;BCS1388054;3;14
009514;14.10.2021;12:41:33;Stop           ;04.12.2018;FEY;;LION;49;14500;7200;128;3;89;92;8400;3000;4125;4095;1;12630;25.54;28.94;28,4;BCS1388054;3;14
009514;13.03.2022;12:10:09;Normalcharge  ;04.12.2018;FEY;;LION;49;14500;7200;2768;4;;;8400;3000;3093;3111;1;12998;24.24;24.64;25,6;BCS1388054;3;8
009514;13.03.2022;12:10:50;Stop           ;04.12.2018;FEY;;LION;49;14500;7200;144;4;;;8400;3000;3239;3210;1;12720;24.24;26.44;25,7;BCS1388054;3;8