File: reader/Batterieverzeichnis_new/009585.txt
Serialnumber ; Date ; Time ; Action ; Date of Manufacture ; Manufacturer ; Battery Name ; Device-Chemistry ; Specification-Info ; Design-Capacity [mAh] ; Design-Voltage [mV] ; Battery Status ; Cycle Count ; SOC [%] ; Relativ SOC[%] ; Desired Voltage [mV]; Desired Current [mA]; Cell Voltage 1 [mV] ; Cell Voltage 2 [mV] ; Max_Error [%] ; Busvoltage[mV] ; Battery Temperature [°C] ; Charger Temperature [°C] ; Batterysystem ; Case ; PLace
009585;07.12.2020;04:14:40;Cycle         ;04.12.2018;FEY;;LION;49;14500;7200;192;1;96;96;8400;;4116;4115;1;13005;25.94;27.44;30,3;BCS1388054;7;9
009585;08.12.2020;16:20:20;Stop          ;04.12.2018;FEY;;LION;49;14500;7200;192;1;96;96;8400;;4114;4114;1;13006;28.04;28.64;31,9;BCS1388054;7;9
009585;12.01.2021;04:17:36;Charge to 90% ;04.12.2018;FEY;;LION;49;14500;7200;192;1;95;95;8400;3000;4103;4103;1;13008;23.44;23.14;23,6;BCS1388054;5;1
009585;12.01.2021;05:15:37;Stop          ;04.12.2018;FEY;;LION;49;14500;7200;192;1;90;90;8400;3000;4057;4057;1;13004;27.64;28.54;31,6;BCS1388054;5;1
009585;12.01.2021;05:21:53;Cycle         ;04.12.2018;FEY;;LION;49;14500;7200;192;1;90;90;8400;3000;4057;4057;1;13005;27.64;28.04;30,6;BCS1388054;5;1
009585;13.01.2021;08:31:10;Stop          ;04.12.2018;FEY;;LION;49;14500;7200;224;3;97;100;8400;;4157;4157;1;13003;27.34;28.04;31,1;BCS1388054;5;1
009585;03.03.2021;08:17:46;Normalcharge  ;04.12.2018;FEY;;LION;49;14500;7200;192;3;64;66;8400;3000;3815;3817;1;13028;23.44;23.14;23,6;BCS1388054;7;3
009585;03.03.2021;10:54:05;Stop          ;04.12.2018;FEY;;LION;49;14500;7200;128;3;95;98;8400;3000;4181;4151;1;12709;30.24;33.24;31,4;BCS1388054;7;3
009585;03.03.2021;10:55:49;Normalcharge  ;04.12.2018;FEY;;LION;49;14500;7200;192;3;95;98;8400;3000;4121;4121;1;13020;30.14;31.04;30,6;BCS1388054;7;3
009585;03.03.2021;17:03:24;Stop          ;04.12.2018;FEY;;LION;49;14500;7200;224;3;98;100;8400;;4153;4153;1;13022;26.64;27.44;31,4;BCS1388054;7;3
009585;04.04.2021;11:50:22;Normalcharge  ;04.12.2018;FEY;;LION;49;14500;7200;224;3;96;99;8400;;4133;4133;1;13004;25.24;25.74;27,9;BCS1388054;4;6
009585;04.04.2021;11:51:36;Stop          ;04.12.2018;FEY;;LION;49;14500;7200;224;3;96;99;8400;;4133;4133;1;12717;25.24;26.04;28,6;BCS1388054;4;6
009585;04.08.2021;07:25:01;Normalcharge  ;04.12.2018;FEY;;LION;49;14500;7200;192;3;92;95;8400;3000;4085;4084;1;12997;22.14;30.24;31,5;BCS1388054;1;17
009585;04.08.2021;07:25:57;Stop          ;04.12.2018;FEY;;LION;49;14500;7200;128;3;92;95;8400;3000;4148;4123;1;12769;22.34;32.14;31,9;BCS1388054;1;17
009585;22.08.2021;11:37:13;Normalcharge  ;04.12.2018;FEY;;LION;49;14500;7200;192;3;92;94;8400;3000;4081;4080;1;13029;24.14;30.14;31,9;BCS1388054;7;5
009585;22.08.2021;11:37:48;Stop          ;04.12.2018;FEY;;LION;49;14500;7200;192;3;92;94;8400;3000;4080;4080;1;13006;24.24;31.24;31,9;BCS1388054;7;5
009585;14.10.2021;12:40:04;Normalcharge  ;04.12.2018;FEY;;LION;49;14500;7200;192;3;73;75;8400;3000;3886;3887;1;13002;25.94;25.34;27,9;BCS1388054;3;16
009585;14.10.2021;12:41:33;Stop           ;04.12.2018;FEY;;LION;49;14500;7200;128;3;73;75;8400;3000;3977;3929;1;12594;25.94;28.54;28,4;BCS1388054;3;16
009585;07.02.2022;08:51:04;Normalcharge  ;04.12.2018;FEY;;LION;49;14500;7200;192;3;73;75;8400;3000;3862;3862;1;13009;22.54;22.44;25,1;BCS1388054;3;18
009585;07.02.2022;14:32:56;Stop           ;04.12.2018;FEY;;LION;49;14500;7200;224;3;98;100;8400;;4151;4150;1;13002;25.34;25.94;30,8;BCS1388054;3;18
009585;14.03.2022;12:14:36;Normalcharge  ;04.12.2018;FEY;;LION;49;14500;7200;224;3;96;99;8400;;4130;4129;1;12993;24.94;25.74;27,7;BCS1388054;3;8
009585;14.03.2022;12:18:51;Stop           ;04.12.2018;FEY;;LION;49;14500;7200;224;3;96;99;8400;;4130;4129;1;12959;24.94;26.64;29,5;BCS1388054;3;8