File: reader/Batterieverzeichnis_new/009550.txt
Serialnumber ; Date ; Time ; Action ; Date of Manufacture ; Manufacturer ; Battery Name ; Device-Chemistry ; Specification-Info ; Design-Capacity [mAh] ; Design-Voltage [mV] ; Battery Status ; Cycle Count ; SOC [%] ; Relativ SOC[%] ; Desired Voltage [mV]; Desired Current [mA]; Cell Voltage 1 [mV] ; Cell Voltage 2 [mV] ; Max_Error [%] ; Busvoltage[mV] ; Battery Temperature [°C] ; Charger Temperature [°C] ; Batterysystem ; Case ; PLace
009550;07.02.2021;08:46:54;Normalcharge  ;04.12.2018;FEY;;LION;49;14500;7200;192;3;93;94;8400;3000;4067;4066;1;13008;23.44;24.74;29,2;BCS1388054;3;17
009550;07.02.2021;11:52:16;Stop           ;04.12.2018;FEY;;LION;49;14500;7200;224;3;99;100;8400;;4151;4149;1;13009;25.84;26.54;29,7;BCS1388054;3;17
009550;03.03.2021;08:17:46;Normalcharge  ;04.12.2018;FEY;;LION;49;14500;7200;2768;5;;;8400;3000;3052;3055;1;13031;23.14;23.24;23,6;BCS1388054;7;13
009550;03.03.2021;10:54:05;Stop          ;04.12.2018;FEY;;LION;49;14500;7200;128;5;30;31;8400;3000;3678;3630;1;12703;30.94;38.74;31,4;BCS1388054;7;13
009550;03.03.2021;10:55:49;Normalcharge  ;04.12.2018;FEY;;LION;49;14500;7200;192;5;30;32;8400;3000;3595;3595;1;13024;30.94;34.84;30,6;BCS1388054;7;13
009550;03.03.2021;17:03:24;Stop          ;04.12.2018;FEY;;LION;49;14500;7200;224;5;95;100;8400;;4163;4162;1;13025;26.64;28.24;31,4;BCS1388054;7;13
009550;04.04.2021;11:50:10;Normalcharge  ;04.12.2018;FEY;;LION;49;14500;7200;192;5;51;53;8400;3000;3676;3675;1;13001;24.94;25.84;27,8;BCS1388054;5;14
009550;04.04.2021;11:51:30;Stop          ;04.12.2018;FEY;;LION;49;14500;7200;128;5;51;53;8400;3000;3764;3717;1;12671;25.04;29.44;28,5;BCS1388054;5;14
009550;05.04.2021;09:38:11;Charge to 60% ;04.12.2018;FEY;;LION;49;14500;7200;192;5;51;53;8400;3000;3678;3678;1;13012;25.04;26.44;26,3;BCS1388054;4;10
009550;05.04.2021;10:13:52;Stop          ;04.12.2018;FEY;;LION;49;14500;7200;192;5;57;60;8400;3000;3750;3752;1;13011;27.74;30.14;32,1;BCS1388054;4;10
009550;22.08.2021;11:37:21;Normalcharge  ;04.12.2018;FEY;;LION;49;14500;7200;224;5;98;100;8400;;4156;4155;1;12997;21.24;27.74;31,9;BCS1388054;5;10
009550;22.08.2021;11:38:04;Stop          ;04.12.2018;FEY;;LION;49;14500;7200;224;5;98;100;8400;;4155;4155;1;12732;21.34;28.14;32,0;BCS1388054;5;10
009550;12.10.2021;12:15:28;Normalcharge  ;04.12.2018;FEY;;LION;49;14500;7200;224;5;96;99;8400;;4133;4133;1;12995;23.44;26.34;27,9;BCS1388054;2;13
009550;12.10.2021;12:15:46;Stop          ;04.12.2018;FEY;;LION;49;14500;7200;224;5;96;99;8400;;4134;4133;1;12990;23.54;26.44;27,9;BCS1388054;2;13
009550;14.10.2021;12:40:08;Normalcharge  ;04.12.2018;FEY;;LION;49;14500;7200;224;5;96;99;8400;;4133;4133;1;13012;25.04;26.94;27,9;BCS1388054;4;10
009550;14.10.2021;12:41:43;Stop          ;04.12.2018;FEY;;LION;49;14500;7200;224;5;96;99;8400;;4133;4133;1;12678;25.04;27.64;28,4;BCS1388054;4;10
009550;28.12.2021;09:01:33;Normalcharge  ;04.12.2018;FEY;;LION;49;14500;7200;192;6;58;60;8400;3000;3745;3745;1;13011;23.74;24.44;25,4;BCS1388054;5;4
009550;28.12.2021;09:02:46;Stop          ;04.12.2018;FEY;;LION;49;14500;7200;128;6;58;60;8400;3000;3838;3793;1;12675;23.84;27.24;26,0;BCS1388054;5;4
009550;07.02.2022;08:50:47;Normalcharge  ;04.12.2018;FEY;;LION;49;14500;7200;192;6;57;59;8400;3000;3734;3733;1;13008;22.44;23.14;25,0;BCS1388054;6;2
009550;13.02.2022;10:58:25;Normalcharge  ;04.12.2018;FEY;;LION;49;14500;7200;224;6;97;100;8400;;4141;4141;1;13008;22.64;21.84;26,1;BCS1388054;3;2
009550;13.02.2022;17:19:51;Stop           ;04.12.2018;FEY;;LION;49;14500;7200;224;6;97;100;8400;;4141;4141;1;13000;25.14;26.34;29,0;BCS1388054;3;2
009550;14.03.2022;12:14:16;Normalcharge  ;04.12.2018;FEY;;LION;49;14500;7200;192;6;80;83;8400;3000;3961;3961;1;13035;24.14;24.44;27,4;BCS1388054;7;14
009550;14.03.2022;12:18:09;Stop          ;04.12.2018;FEY;;LION;49;14500;7200;128;6;81;84;8400;3000;4071;4023;1;12811;24.44;30.64;29,3;BCS1388054;7;14
009550;17.05.2022;08:54:10;Normalcharge  ;04.12.2018;FEY;;LION;49;14500;7200;192;6;82;84;8400;3000;3951;3951;1;12992;28.44;29.64;30,8;BCS1388054;2;13
009550;17.05.2022;13:41:00;Stop          ;04.12.2018;FEY;;LION;49;14500;7200;224;6;97;100;8400;;4152;4151;1;12990;30.54;31.94;33,9;BCS1388054;2;13