File: reader/Batterieverzeichnis_new/009537.txt
Serialnumber ; Date ; Time ; Action ; Date of Manufacture ; Manufacturer ; Battery Name ; Device-Chemistry ; Specification-Info ; Design-Capacity [mAh] ; Design-Voltage [mV] ; Battery Status ; Cycle Count ; SOC [%] ; Relativ SOC[%] ; Desired Voltage [mV]; Desired Current [mA]; Cell Voltage 1 [mV] ; Cell Voltage 2 [mV] ; Max_Error [%] ; Busvoltage[mV] ; Battery Temperature [°C] ; Charger Temperature [°C] ; Batterysystem ; Case ; PLace
009537;07.12.2020;04:14:17;Cycle         ;03.12.2018;FEY;;LION;49;14500;7200;16576;3;97;100;;;4155;4154;1;12993;25.14;27.14;30,3;BCS1388054;1;4
009537;08.12.2020;16:19:38;Stop          ;03.12.2018;FEY;;LION;49;14500;7200;16576;3;97;100;;;4152;4152;1;12994;26.94;28.44;31,9;BCS1388054;1;4
009537;12.01.2021;04:17:36;Charge to 90% ;03.12.2018;FEY;;LION;49;14500;7200;16576;3;97;100;;;4135;4135;1;13015;22.64;23.74;23,6;BCS1388054;5;9
009537;12.01.2021;05:15:37;Stop          ;03.12.2018;FEY;;LION;49;14500;7200;192;3;85;90;8400;3000;4033;4032;1;13009;27.04;28.64;31,6;BCS1388054;5;9
009537;12.01.2021;05:21:53;Cycle         ;03.12.2018;FEY;;LION;49;14500;7200;192;3;85;90;8400;3000;4035;4034;1;13011;26.94;28.14;30,6;BCS1388054;5;9
009537;13.01.2021;08:31:10;Stop          ;03.12.2018;FEY;;LION;49;14500;7200;224;5;97;100;8400;;4155;4155;1;13011;26.84;28.14;31,1;BCS1388054;5;9
009537;21.02.2021;13:44:56;Normalcharge  ;03.12.2018;FEY;;LION;49;14500;7200;192;5;55;57;8400;3000;3720;3720;1;13005;22.44;22.94;27,7;BCS1388054;5;14
009537;21.02.2021;19:31:36;Stop          ;03.12.2018;FEY;;LION;49;14500;7200;224;5;96;100;8400;;4154;4152;1;12999;26.74;28.54;30,6;BCS1388054;5;14
009537;06.04.2021;08:39:03;Normalcharge  ;03.12.2018;FEY;;LION;49;14500;7200;224;5;94;99;8400;;4127;4126;1;13008;20.84;24.34;28,1;BCS1388054;4;9
009537;06.04.2021;08:39:53;Stop          ;03.12.2018;FEY;;LION;49;14500;7200;224;5;94;99;8400;;4127;4126;1;13006;20.94;24.44;28,4;BCS1388054;4;9
009537;08.04.2021;07:58:12;Normalcharge  ;03.12.2018;FEY;;LION;49;14500;7200;224;5;94;99;8400;;4127;4126;1;13008;24.74;23.64;26,3;BCS1388054;4;9
009537;08.04.2021;07:59:34;Stop          ;03.12.2018;FEY;;LION;49;14500;7200;224;5;94;99;8400;;4127;4126;1;12988;24.74;25.14;26,7;BCS1388054;4;9
009537;08.04.2021;10:36:07;Normalcharge  ;03.12.2018;FEY;;LION;49;14500;7200;224;5;94;99;8400;;4127;4125;1;13007;24.94;25.24;28,5;BCS1388054;4;9
009537;08.04.2021;10:37:03;Stop          ;03.12.2018;FEY;;LION;49;14500;7200;224;5;94;99;8400;;4127;4126;1;12984;24.94;25.64;29,0;BCS1388054;4;9
009537;18.04.2021;08:34:04;Normalcharge  ;03.12.2018;FEY;;LION;49;14500;7200;224;5;94;99;8400;;4124;4122;1;13006;25.64;26.14;27,9;BCS1388054;4;9
009537;18.04.2021;08:34:10;Stop          ;03.12.2018;FEY;;LION;49;14500;7200;224;5;94;99;8400;;4124;4122;1;13006;25.64;26.14;28,1;BCS1388054;4;9
009537;04.08.2021;07:24:46;Normalcharge  ;03.12.2018;FEY;;LION;49;14500;7200;192;5;92;96;8400;;4093;4092;1;13001;29.84;30.04;31,5;BCS1388054;4;9
009537;04.08.2021;07:25:30;Stop          ;03.12.2018;FEY;;LION;49;14500;7200;192;5;92;96;8400;;4093;4092;1;12978;29.84;30.34;31,7;BCS1388054;4;9
009537;22.08.2021;11:08:04;Normalcharge  ;03.12.2018;FEY;;LION;49;14500;7200;192;5;91;94;8400;3000;4083;4082;1;12989;22.24;30.44;32,1;BCS1388054;4;3
009537;22.08.2021;11:08:37;Stop          ;03.12.2018;FEY;;LION;49;14500;7200;128;5;91;94;8400;3000;4122;4106;1;12692;22.24;31.54;32,5;BCS1388054;4;3
009537;12.10.2021;12:15:20;Normalcharge  ;03.12.2018;FEY;;LION;49;14500;7200;192;5;91;94;8400;3000;4071;4070;1;13017;24.14;26.24;27,9;BCS1388054;1;16
009537;12.10.2021;12:15:34;Stop          ;03.12.2018;FEY;;LION;49;14500;7200;192;5;91;94;8400;3000;4071;4070;1;13000;24.14;26.54;27,9;BCS1388054;1;16
009537;14.10.2021;12:40:03;Normalcharge  ;03.12.2018;FEY;;LION;49;14500;7200;192;5;87;90;8400;3000;4044;4043;1;13001;25.14;25.64;27,9;BCS1388054;3;2
009537;14.10.2021;12:41:32;Stop           ;03.12.2018;FEY;;LION;49;14500;7200;128;5;87;91;8400;3000;4120;4086;1;12623;25.24;28.94;28,4;BCS1388054;3;2
009537;01.11.2021;09:52:05;Normalcharge  ;03.12.2018;FEY;;LION;49;14500;7200;192;5;87;90;8400;3000;4039;4038;1;13003;24.14;25.44;26,3;BCS1388054;4;6
009537;01.11.2021;09:53:34;Stop          ;03.12.2018;FEY;;LION;49;14500;7200;128;5;87;91;8400;3000;4118;4084;1;12607;24.24;27.74;27,1;BCS1388054;4;6
009537;01.11.2021;10:02:14;Normalcharge  ;03.12.2018;FEY;;LION;49;14500;7200;192;5;87;91;8400;3000;4042;4041;1;12998;24.64;26.94;29,5;BCS1388054;4;6
009537;01.11.2021;10:03:16;Stop          ;03.12.2018;FEY;;LION;49;14500;7200;128;5;87;91;8400;3000;4113;4082;1;12587;24.74;28.44;29,3;BCS1388054;4;6