File: reader/Batterieverzeichnis_new/009596.txt
Serialnumber ; Date ; Time ; Action ; Date of Manufacture ; Manufacturer ; Battery Name ; Device-Chemistry ; Specification-Info ; Design-Capacity [mAh] ; Design-Voltage [mV] ; Battery Status ; Cycle Count ; SOC [%] ; Relativ SOC[%] ; Desired Voltage [mV]; Desired Current [mA]; Cell Voltage 1 [mV] ; Cell Voltage 2 [mV] ; Max_Error [%] ; Busvoltage[mV] ; Battery Temperature [°C] ; Charger Temperature [°C] ; Batterysystem ; Case ; PLace
009596;07.12.2020;04:14:32;Cycle         ;04.12.2018;FEY;;LION;49;14500;7200;192;1;92;98;8400;;4129;4129;1;12992;25.74;27.54;30,3;BCS1388054;5;13
009596;08.12.2020;16:20:01;Stop          ;04.12.2018;FEY;;LION;49;14500;7200;192;1;93;98;8400;;4128;4128;1;12991;27.84;29.24;31,7;BCS1388054;5;13
009596;12.01.2021;04:17:36;Charge to 90% ;04.12.2018;FEY;;LION;49;14500;7200;192;1;91;97;8400;;4116;4116;1;13009;23.04;24.14;23,6;BCS1388054;5;3
009596;12.01.2021;05:15:37;Stop          ;04.12.2018;FEY;;LION;49;14500;7200;192;1;85;90;8400;3000;4060;4060;1;13002;27.14;29.44;31,6;BCS1388054;5;3
009596;12.01.2021;05:21:53;Cycle         ;04.12.2018;FEY;;LION;49;14500;7200;192;1;85;90;8400;3000;4060;4060;1;13003;27.14;29.04;30,6;BCS1388054;5;3
009596;13.01.2021;08:31:10;Stop          ;04.12.2018;FEY;;LION;49;14500;7200;224;2;96;100;8400;;4157;4157;1;13001;27.04;29.04;31,1;BCS1388054;5;3
009596;22.02.2021;17:31:46;Normalcharge  ;04.12.2018;FEY;;LION;49;14500;7200;192;3;62;65;8400;3000;3807;3807;1;12986;25.74;26.64;31,6;BCS1388054;1;12
009596;22.02.2021;23:06:28;Stop          ;04.12.2018;FEY;;LION;49;14500;7200;224;3;96;100;8400;;4154;4156;1;12988;26.24;27.04;30,6;BCS1388054;1;12
009596;06.04.2021;08:38:50;Normalcharge  ;04.12.2018;FEY;;LION;49;14500;7200;224;3;95;99;8400;;4128;4130;1;13003;20.74;24.84;28,1;BCS1388054;3;6
009596;06.04.2021;08:39:42;Stop           ;04.12.2018;FEY;;LION;49;14500;7200;224;3;95;99;8400;;4128;4130;1;13002;20.84;25.04;28,2;BCS1388054;3;6
009596;08.04.2021;07:58:01;Normalcharge  ;04.12.2018;FEY;;LION;49;14500;7200;224;3;94;99;8400;;4128;4129;1;12998;25.24;24.94;26,4;BCS1388054;3;6
009596;08.04.2021;07:59:40;Stop           ;04.12.2018;FEY;;LION;49;14500;7200;224;3;94;99;8400;;4128;4129;1;12997;25.24;25.44;26,8;BCS1388054;3;6
009596;08.04.2021;10:35:05;Normalcharge  ;04.12.2018;FEY;;LION;49;14500;7200;224;3;94;99;8400;;4128;4129;1;13002;25.54;25.24;28,1;BCS1388054;3;6
009596;08.04.2021;10:36:56;Stop           ;04.12.2018;FEY;;LION;49;14500;7200;224;3;94;99;8400;;4128;4129;1;13001;25.54;25.94;29,0;BCS1388054;3;6
009596;18.04.2021;08:33:50;Normalcharge  ;04.12.2018;FEY;;LION;49;14500;7200;192;3;94;98;8400;;4124;4125;1;13002;26.14;26.24;27,8;BCS1388054;3;6
009596;18.04.2021;08:33:58;Stop           ;04.12.2018;FEY;;LION;49;14500;7200;192;3;94;98;8400;;4124;4125;1;13002;26.14;26.34;27,9;BCS1388054;3;6
009596;04.08.2021;07:24:50;Normalcharge  ;04.12.2018;FEY;;LION;49;14500;7200;192;3;92;96;8400;;4092;4092;1;12994;30.34;30.54;31,6;BCS1388054;3;6
009596;04.08.2021;07:25:37;Stop           ;04.12.2018;FEY;;LION;49;14500;7200;192;3;92;96;8400;;4092;4092;1;12993;30.34;30.64;31,7;BCS1388054;3;6
009596;22.08.2021;11:37:13;Normalcharge  ;04.12.2018;FEY;;LION;49;14500;7200;192;3;92;96;8400;;4087;4088;1;13018;23.14;29.04;31,9;BCS1388054;7;3
009596;22.08.2021;11:37:48;Stop          ;04.12.2018;FEY;;LION;49;14500;7200;192;3;92;96;8400;;4087;4088;1;12998;23.24;29.34;31,9;BCS1388054;7;3
009596;14.10.2021;12:40:22;Normalcharge  ;04.12.2018;FEY;;LION;49;14500;7200;192;3;75;79;8400;3000;3921;3922;1;13018;23.44;26.74;28,1;BCS1388054;7;10
009596;14.10.2021;12:42:05;Stop          ;04.12.2018;FEY;;LION;49;14500;7200;128;3;75;79;8400;3000;4019;3972;1;12713;23.54;30.54;28,5;BCS1388054;7;10
009596;07.02.2022;08:51:51;Normalcharge  ;04.12.2018;FEY;;LION;49;14500;7200;192;3;75;79;8400;3000;3895;3896;1;12998;22.44;24.14;25,6;BCS1388054;1;8
009596;07.02.2022;13:16:30;Stop          ;04.12.2018;FEY;;LION;49;14500;7200;224;3;95;100;8400;;4151;4153;1;12995;25.64;28.04;31,2;BCS1388054;1;8
009596;14.03.2022;12:14:26;Normalcharge  ;04.12.2018;FEY;;LION;49;14500;7200;224;3;94;99;8400;;4129;4131;1;13005;24.04;24.34;27,5;BCS1388054;5;6
009596;14.03.2022;12:18:30;Stop          ;04.12.2018;FEY;;LION;49;14500;7200;224;3;94;99;8400;;4129;4131;1;13001;24.14;25.14;29,5;BCS1388054;5;6