File: reader/Batterieverzeichnis_new/009528.txt
Serialnumber ; Date ; Time ; Action ; Date of Manufacture ; Manufacturer ; Battery Name ; Device-Chemistry ; Specification-Info ; Design-Capacity [mAh] ; Design-Voltage [mV] ; Battery Status ; Cycle Count ; SOC [%] ; Relativ SOC[%] ; Desired Voltage [mV]; Desired Current [mA]; Cell Voltage 1 [mV] ; Cell Voltage 2 [mV] ; Max_Error [%] ; Busvoltage[mV] ; Battery Temperature [°C] ; Charger Temperature [°C] ; Batterysystem ; Case ; PLace
009528;10.12.2019;15:28:33;Charge to 30% ;04.12.2018;FEY;;LION;49;14500;7200;192;50;91;98;8400;;4107;4105;1;12998;23.34;24.84;27,1;BCS1388054;1;11
009528;10.12.2019;20:42:17;Stop          ;04.12.2018;FEY;;LION;49;14500;7200;192;51;29;30;8400;3000;3561;3561;1;12994;31.74;31.04;34,1;BCS1388054;1;11
009528;11.12.2019;08:48:18;Fastcharge    ;04.12.2018;FEY;;LION;49;14500;7200;192;51;29;30;8400;3000;3570;3569;1;12998;25.94;26.64;31,9;BCS1388054;1;11
009528;11.12.2019;13:40:21;Stop          ;04.12.2018;FEY;;LION;49;14500;7200;224;51;95;100;8400;;4162;4161;1;12995;28.54;28.14;32,4;BCS1388054;1;11
009528;11.12.2019;15:45:57;Charge to 30% ;04.12.2018;FEY;;LION;49;14500;7200;224;51;96;99;8400;;4151;4151;1;12996;26.54;26.74;31,5;BCS1388054;1;11
009528;11.12.2019;15:46:00;Stop          ;04.12.2018;FEY;;LION;49;14500;7200;224;51;96;99;8400;;4151;4151;1;12996;26.54;26.74;31,5;BCS1388054;1;11
009528;11.12.2019;15:46:13;Charge to 10% ;04.12.2018;FEY;;LION;49;14500;7200;224;51;96;99;8400;;4151;4151;1;12996;26.54;26.64;31,5;BCS1388054;1;11
009528;11.12.2019;22:50:20;Stop          ;04.12.2018;FEY;;LION;49;14500;7200;192;52;10;10;8400;3000;3351;3352;1;12995;32.24;30.54;33,4;BCS1388054;1;11
009528;12.12.2019;08:44:40;Normalcharge  ;04.12.2018;FEY;;LION;49;14500;7200;192;52;9;10;8400;3000;3362;3363;1;12997;26.14;26.74;31,9;BCS1388054;1;11
009528;12.12.2019;16:39:22;Stop          ;04.12.2018;FEY;;LION;49;14500;7200;224;52;96;100;8400;;4160;4160;1;12995;28.04;27.74;31,7;BCS1388054;1;11
009528;13.12.2019;10:47:47;Charge to 10% ;04.12.2018;FEY;;LION;49;14500;7200;224;52;96;100;8400;;4146;4146;1;12996;26.14;26.94;32,0;BCS1388054;1;11
009528;13.12.2019;15:41:58;Stop          ;04.12.2018;FEY;;LION;49;14500;7200;192;53;35;36;8400;3000;3499;3551;1;13634;31.24;34.14;34,6;BCS1388054;1;11
009528;13.12.2019;15:42:01;Cycle         ;04.12.2018;FEY;;LION;49;14500;7200;192;53;35;36;8400;3000;3499;3551;1;12994;31.24;34.24;34,6;BCS1388054;1;11
009528;14.12.2019;22:41:25;Stop          ;04.12.2018;FEY;;LION;49;14500;7200;224;54;93;99;8400;;4150;4150;1;12997;26.14;26.74;31,9;BCS1388054;1;11
009528;16.12.2019;07:43:03;Charge to 10% ;04.12.2018;FEY;;LION;49;14500;7200;224;54;94;100;8400;;4144;4144;1;12997;25.84;26.04;31,9;BCS1388054;1;11
009528;16.12.2019;14:36:13;Stop          ;04.12.2018;FEY;;LION;49;14500;7200;192;55;10;10;8400;3000;3365;3365;1;12995;30.94;29.54;32,4;BCS1388054;1;11
009528;16.12.2019;14:44:00;Charge to 90% ;04.12.2018;FEY;;LION;49;14500;7200;192;55;10;10;8400;3000;3367;3368;1;12995;30.34;28.74;31,7;BCS1388054;1;11
009528;16.12.2019;20:50:03;Stop          ;04.12.2018;FEY;;LION;49;14500;7200;192;55;85;90;8400;3000;4057;4057;1;12996;30.04;28.74;31,7;BCS1388054;1;11
009528;17.12.2019;08:37:36;Fastcharge    ;04.12.2018;FEY;;LION;49;14500;7200;192;55;85;90;8400;3000;4046;4047;1;12997;25.94;26.64;31,6;BCS1388054;1;11
009528;17.12.2019;10:31:11;Stop          ;04.12.2018;FEY;;LION;49;14500;7200;224;55;95;100;8400;;4158;4158;1;12997;27.14;27.04;31,4;BCS1388054;1;11
009528;17.12.2019;13:38:19;Charge to 10% ;04.12.2018;FEY;;LION;49;14500;7200;224;55;95;100;8400;;4147;4147;1;12996;26.14;26.44;30,8;BCS1388054;1;11
009528;17.12.2019;20:33:50;Stop          ;04.12.2018;FEY;;LION;49;14500;7200;192;56;10;10;8400;3000;3363;3364;1;12994;32.24;30.74;34,2;BCS1388054;1;11
009528;18.12.2019;08:31:14;Fastcharge    ;04.12.2018;FEY;;LION;49;14500;7200;192;56;10;10;8400;3000;3373;3374;1;12996;26.04;26.54;31,6;BCS1388054;1;11
009528;18.12.2019;14:28:33;Stop          ;04.12.2018;FEY;;LION;49;14500;7200;224;56;95;100;8400;;4160;4160;1;12996;28.54;28.04;31,9;BCS1388054;1;11
009528;19.12.2019;08:23:45;Charge to 60% ;04.12.2018;FEY;;LION;49;14500;7200;224;56;96;100;8400;;4146;4146;1;12997;25.94;26.64;31,5;BCS1388054;1;11
009528;19.12.2019;11:29:32;Stop          ;04.12.2018;FEY;;LION;49;14500;7200;192;57;58;60;8400;3000;3765;3767;1;12995;32.34;31.34;34,9;BCS1388054;1;11
009528;19.12.2019;12:16:33;Cycle         ;04.12.2018;FEY;;LION;49;14500;7200;192;57;58;60;8400;3000;3778;3780;1;12996;28.94;28.24;32,7;BCS1388054;1;11
009528;20.12.2019;17:26:19;Stop          ;04.12.2018;FEY;;LION;49;14500;7200;224;58;94;100;8400;;4150;4149;1;12996;26.04;26.24;31,2;BCS1388054;1;11
009528;06.01.2020;06:34:38;Charge to 60% ;04.12.2018;FEY;;LION;49;14500;7200;192;58;92;98;8400;;4121;4120;1;12998;26.04;26.64;31,9;BCS1388054;1;11
009528;06.01.2020;09:30:30;Stop          ;04.12.2018;FEY;;LION;49;14500;7200;192;58;57;60;8400;3000;3772;3773;1;12997;31.54;30.24;33,9;BCS1388054;1;11
009528;06.01.2020;09:50:27;Fastcharge    ;04.12.2018;FEY;;LION;49;14500;7200;192;58;57;60;8400;3000;3781;3782;1;12996;29.94;28.84;32,6;BCS1388054;1;11
009528;06.01.2020;13:07:36;Stop          ;04.12.2018;FEY;;LION;49;14500;7200;224;58;95;100;8400;;4161;4161;1;12997;28.14;27.64;31,7;BCS1388054;1;11