File: reader/Batterieverzeichnis_new/009556.txt
Serialnumber ; Date ; Time ; Action ; Date of Manufacture ; Manufacturer ; Battery Name ; Device-Chemistry ; Specification-Info ; Design-Capacity [mAh] ; Design-Voltage [mV] ; Battery Status ; Cycle Count ; SOC [%] ; Relativ SOC[%] ; Desired Voltage [mV]; Desired Current [mA]; Cell Voltage 1 [mV] ; Cell Voltage 2 [mV] ; Max_Error [%] ; Busvoltage[mV] ; Battery Temperature [°C] ; Charger Temperature [°C] ; Batterysystem ; Case ; PLace
009556;07.12.2020;04:14:28;Cycle         ;04.12.2018;FEY;;LION;49;14500;7200;16576;2;96;98;;;4142;4147;1;12993;25.84;28.54;30,3;BCS1388054;4;3
009556;08.12.2020;16:19:56;Stop          ;04.12.2018;FEY;;LION;49;14500;7200;16576;2;96;98;;;4140;4144;1;12993;28.04;30.04;31,9;BCS1388054;4;3
009556;12.01.2021;04:17:40;Charge to 90% ;04.12.2018;FEY;;LION;49;14500;7200;16576;2;95;97;;;4126;4130;1;13011;23.24;23.04;23,6;BCS1388054;6;4
009556;12.01.2021;05:00:55;Stop          ;04.12.2018;FEY;;LION;49;14500;7200;192;3;88;90;8400;3000;4062;4064;1;13006;27.24;28.24;31,2;BCS1388054;6;4
009556;12.01.2021;05:21:57;Cycle         ;04.12.2018;FEY;;LION;49;14500;7200;192;3;88;90;8400;3000;4065;4067;1;13007;27.24;27.24;30,4;BCS1388054;6;4
009556;13.01.2021;08:31:18;Stop          ;04.12.2018;FEY;;LION;49;14500;7200;224;4;97;100;8400;;4156;4158;1;13007;26.94;27.34;31,1;BCS1388054;6;4
009556;21.02.2021;13:44:56;Normalcharge  ;04.12.2018;FEY;;LION;49;14500;7200;192;4;51;52;8400;3000;3674;3674;1;13014;23.24;23.04;27,7;BCS1388054;5;4
009556;21.02.2021;19:31:36;Stop          ;04.12.2018;FEY;;LION;49;14500;7200;224;4;98;100;8400;;4155;4156;1;13009;27.14;27.84;30,6;BCS1388054;5;4
009556;06.04.2021;08:39:03;Normalcharge  ;04.12.2018;FEY;;LION;49;14500;7200;224;4;96;99;8400;;4128;4129;1;13004;21.04;24.84;28,1;BCS1388054;4;14
009556;06.04.2021;08:39:53;Stop          ;04.12.2018;FEY;;LION;49;14500;7200;224;4;96;99;8400;;4128;4129;1;13002;21.04;25.14;28,4;BCS1388054;4;14
009556;08.04.2021;07:58:12;Normalcharge  ;04.12.2018;FEY;;LION;49;14500;7200;224;4;96;99;8400;;4128;4128;1;13002;25.44;16.14;26,3;BCS1388054;4;14
009556;08.04.2021;07:59:34;Stop          ;04.12.2018;FEY;;LION;49;14500;7200;224;4;96;99;8400;;4128;4128;1;12985;25.44;25.54;26,7;BCS1388054;4;14
009556;08.04.2021;10:36:07;Normalcharge  ;04.12.2018;FEY;;LION;49;14500;7200;224;4;96;99;8400;;4128;4129;1;13003;25.64;25.74;28,5;BCS1388054;4;14
009556;08.04.2021;10:37:03;Stop          ;04.12.2018;FEY;;LION;49;14500;7200;224;4;96;99;8400;;4128;4128;1;12981;25.64;26.14;29,0;BCS1388054;4;14
009556;18.04.2021;08:34:04;Normalcharge  ;04.12.2018;FEY;;LION;49;14500;7200;192;4;96;98;8400;;4124;4125;1;13002;26.34;26.54;27,9;BCS1388054;4;14
009556;18.04.2021;08:34:10;Stop          ;04.12.2018;FEY;;LION;49;14500;7200;192;4;96;98;8400;;4124;4125;1;13002;26.34;26.64;28,1;BCS1388054;4;14
009556;04.08.2021;07:24:46;Normalcharge  ;04.12.2018;FEY;;LION;49;14500;7200;192;4;94;96;8400;;4093;4093;1;12998;30.44;30.54;31,5;BCS1388054;4;14
009556;04.08.2021;07:25:30;Stop          ;04.12.2018;FEY;;LION;49;14500;7200;192;4;94;96;8400;;4092;4093;1;12975;30.44;30.84;31,7;BCS1388054;4;14
009556;22.08.2021;11:37:13;Normalcharge  ;04.12.2018;FEY;;LION;49;14500;7200;192;4;94;96;8400;;4088;4088;1;13017;23.04;29.24;31,9;BCS1388054;7;7
009556;22.08.2021;11:37:48;Stop          ;04.12.2018;FEY;;LION;49;14500;7200;192;4;94;96;8400;;4088;4088;1;12996;23.14;29.34;31,9;BCS1388054;7;7
009556;14.10.2021;12:40:04;Normalcharge  ;04.12.2018;FEY;;LION;49;14500;7200;192;4;91;93;8400;3000;4074;4074;1;13003;25.54;26.64;27,9;BCS1388054;3;12
009556;14.10.2021;12:41:33;Stop           ;04.12.2018;FEY;;LION;49;14500;7200;128;4;91;93;8400;3000;4139;4114;1;12608;25.64;28.34;28,4;BCS1388054;3;12
009556;28.12.2021;09:01:25;Normalcharge  ;04.12.2018;FEY;;LION;49;14500;7200;192;4;85;87;8400;3000;4006;4007;1;13009;23.74;24.04;25,3;BCS1388054;3;5
009556;28.12.2021;09:02:24;Stop           ;04.12.2018;FEY;;LION;49;14500;7200;128;4;85;87;8400;3000;4097;4056;1;12560;23.74;26.04;25,8;BCS1388054;3;5
009556;14.03.2022;12:14:21;Normalcharge  ;04.12.2018;FEY;;LION;49;14500;7200;192;5;62;64;8400;3000;3789;3786;1;12996;23.94;24.74;27,5;BCS1388054;6;7
009556;14.03.2022;12:18:18;Stop          ;04.12.2018;FEY;;LION;49;14500;7200;128;5;63;65;8400;3000;3894;3848;1;12810;24.24;30.24;29,3;BCS1388054;6;7
009556;17.05.2022;08:54:14;Normalcharge  ;04.12.2018;FEY;;LION;49;14500;7200;192;5;63;65;8400;3000;3764;3760;1;13000;28.54;28.94;30,8;BCS1388054;3;16
009556;17.05.2022;12:55:21;Stop           ;04.12.2018;FEY;;LION;49;14500;7200;224;5;98;100;8400;;4164;4165;1;12998;31.84;31.74;34,1;BCS1388054;3;16