File: reader/Batterieverzeichnis_new/009549.txt
Serialnumber ; Date ; Time ; Action ; Date of Manufacture ; Manufacturer ; Battery Name ; Device-Chemistry ; Specification-Info ; Design-Capacity [mAh] ; Design-Voltage [mV] ; Battery Status ; Cycle Count ; SOC [%] ; Relativ SOC[%] ; Desired Voltage [mV]; Desired Current [mA]; Cell Voltage 1 [mV] ; Cell Voltage 2 [mV] ; Max_Error [%] ; Busvoltage[mV] ; Battery Temperature [°C] ; Charger Temperature [°C] ; Batterysystem ; Case ; PLace
009549;07.12.2020;04:14:28;Cycle         ;04.12.2018;FEY;;LION;49;14500;7200;192;1;97;98;8400;;4120;4118;1;13002;25.74;26.74;30,3;BCS1388054;4;9
009549;08.12.2020;16:19:56;Stop          ;04.12.2018;FEY;;LION;49;14500;7200;192;1;97;98;8400;;4118;4116;1;13003;27.84;28.14;31,9;BCS1388054;4;9
009549;12.01.2021;04:17:36;Charge to 90% ;04.12.2018;FEY;;LION;49;14500;7200;192;1;97;98;8400;;4109;4107;1;13014;23.14;23.64;23,6;BCS1388054;5;11
009549;12.01.2021;05:15:37;Stop          ;04.12.2018;FEY;;LION;49;14500;7200;192;1;83;90;8400;3000;4046;4045;1;13007;27.24;28.04;31,6;BCS1388054;5;11
009549;12.01.2021;05:21:53;Cycle         ;04.12.2018;FEY;;LION;49;14500;7200;192;1;83;90;8400;3000;4046;4045;1;13008;27.24;27.54;30,6;BCS1388054;5;11
009549;13.01.2021;08:31:10;Stop          ;04.12.2018;FEY;;LION;49;14500;7200;224;2;95;100;8400;;4157;4154;1;13008;27.04;27.54;31,1;BCS1388054;5;11
009549;21.02.2021;13:43:32;Normalcharge  ;04.12.2018;FEY;;LION;49;14500;7200;192;2;55;58;8400;3000;3724;3723;1;13000;23.14;24.14;27,5;BCS1388054;2;11
009549;21.02.2021;19:27:00;Stop          ;04.12.2018;FEY;;LION;49;14500;7200;224;2;95;100;8400;;4155;4154;1;13000;26.84;26.84;31,1;BCS1388054;2;11
009549;04.04.2021;11:50:28;Normalcharge  ;04.12.2018;FEY;;LION;49;14500;7200;224;2;94;99;8400;;4130;4129;1;13002;25.14;26.74;27,9;BCS1388054;3;1
009549;04.04.2021;11:51:43;Stop           ;04.12.2018;FEY;;LION;49;14500;7200;224;2;94;99;8400;;4130;4129;1;12796;25.14;27.14;28,6;BCS1388054;3;1
009549;22.08.2021;11:37:25;Normalcharge  ;04.12.2018;FEY;;LION;49;14500;7200;192;2;89;93;8400;3000;4063;4063;1;13003;20.84;27.44;31,9;BCS1388054;4;8
009549;22.08.2021;11:38:13;Stop          ;04.12.2018;FEY;;LION;49;14500;7200;128;2;89;93;8400;3000;4132;4102;1;12642;20.94;29.34;32,1;BCS1388054;4;8
009549;14.10.2021;12:40:13;Normalcharge  ;04.12.2018;FEY;;LION;49;14500;7200;192;2;87;91;8400;3000;4048;4047;1;13010;23.34;26.14;27,9;BCS1388054;5;16
009549;14.10.2021;12:41:50;Stop          ;04.12.2018;FEY;;LION;49;14500;7200;128;2;87;91;8400;3000;4121;4089;1;12636;23.54;28.94;28,5;BCS1388054;5;16