File: reader/Batterieverzeichnis_new/009574.txt
Serialnumber ; Date ; Time ; Action ; Date of Manufacture ; Manufacturer ; Battery Name ; Device-Chemistry ; Specification-Info ; Design-Capacity [mAh] ; Design-Voltage [mV] ; Battery Status ; Cycle Count ; SOC [%] ; Relativ SOC[%] ; Desired Voltage [mV]; Desired Current [mA]; Cell Voltage 1 [mV] ; Cell Voltage 2 [mV] ; Max_Error [%] ; Busvoltage[mV] ; Battery Temperature [°C] ; Charger Temperature [°C] ; Batterysystem ; Case ; PLace
009574;30.11.2020;09:42:55;Stop          ;04.12.2018;FEY;;LION;49;14500;7200;192;3;96;98;8400;;4129;4130;1;13023;27.94;28.94;31,7;BCS1388054;7;13
009574;12.01.2021;04:17:22;Charge to 90% ;04.12.2018;FEY;;LION;49;14500;7200;192;3;95;97;8400;;4113;4113;1;13008;23.34;24.44;23,5;BCS1388054;2;10
009574;12.01.2021;04:54:21;Stop          ;04.12.2018;FEY;;LION;49;14500;7200;192;3;89;90;8400;3000;4050;4050;1;12999;26.84;30.74;31,9;BCS1388054;2;10
009574;12.01.2021;05:21:40;Cycle         ;04.12.2018;FEY;;LION;49;14500;7200;192;3;89;90;8400;3000;4054;4055;1;13001;27.24;28.84;30,6;BCS1388054;2;10
009574;13.01.2021;08:20:19;Stop          ;04.12.2018;FEY;;LION;49;14500;7200;224;4;97;100;8400;;4156;4158;1;13001;27.34;28.84;30,8;BCS1388054;2;10
009574;21.02.2021;13:44:56;Normalcharge  ;04.12.2018;FEY;;LION;49;14500;7200;192;5;63;65;8400;3000;3807;3809;1;13021;23.34;24.14;27,7;BCS1388054;5;5
009574;21.02.2021;19:31:36;Stop          ;04.12.2018;FEY;;LION;49;14500;7200;224;5;97;100;8400;;4153;4153;1;13016;27.14;28.24;30,6;BCS1388054;5;5
009574;06.04.2021;08:39:03;Normalcharge  ;04.12.2018;FEY;;LION;49;14500;7200;224;5;96;99;8400;;4127;4127;1;13007;21.04;24.84;28,1;BCS1388054;4;17
009574;06.04.2021;08:39:53;Stop          ;04.12.2018;FEY;;LION;49;14500;7200;224;5;96;99;8400;;4127;4127;1;13005;21.14;25.04;28,4;BCS1388054;4;17
009574;08.04.2021;07:58:12;Normalcharge  ;04.12.2018;FEY;;LION;49;14500;7200;224;5;95;99;8400;;4127;4127;1;13007;25.44;19.84;26,3;BCS1388054;4;17
009574;08.04.2021;07:59:34;Stop          ;04.12.2018;FEY;;LION;49;14500;7200;224;5;95;99;8400;;4126;4126;1;12988;25.44;25.64;26,7;BCS1388054;4;17
009574;08.04.2021;10:36:07;Normalcharge  ;04.12.2018;FEY;;LION;49;14500;7200;224;5;95;99;8400;;4127;4127;1;13006;25.64;25.74;28,5;BCS1388054;4;17
009574;08.04.2021;10:37:03;Stop          ;04.12.2018;FEY;;LION;49;14500;7200;224;5;95;99;8400;;4127;4127;1;12983;25.64;26.04;29,0;BCS1388054;4;17
009574;18.04.2021;08:34:04;Normalcharge  ;04.12.2018;FEY;;LION;49;14500;7200;224;5;95;99;8400;;4123;4123;1;13006;26.34;26.54;27,9;BCS1388054;4;17
009574;18.04.2021;08:34:10;Stop          ;04.12.2018;FEY;;LION;49;14500;7200;224;5;95;99;8400;;4123;4123;1;13005;26.34;26.64;28,1;BCS1388054;4;17
009574;04.08.2021;07:24:46;Normalcharge  ;04.12.2018;FEY;;LION;49;14500;7200;192;5;93;96;8400;;4090;4090;1;13002;30.54;30.54;31,5;BCS1388054;4;17
009574;04.08.2021;07:25:30;Stop          ;04.12.2018;FEY;;LION;49;14500;7200;192;5;93;96;8400;;4090;4090;1;12979;30.54;30.84;31,7;BCS1388054;4;17
009574;22.08.2021;11:08:14;Normalcharge  ;04.12.2018;FEY;;LION;49;14500;7200;192;5;72;76;8400;3000;3894;3895;1;13010;23.84;30.14;32,2;BCS1388054;6;17
009574;22.08.2021;11:08:47;Stop          ;04.12.2018;FEY;;LION;49;14500;7200;128;5;72;76;8400;3000;3921;3909;1;12778;23.84;31.54;32,5;BCS1388054;6;17
009574;14.10.2021;12:39:51;Normalcharge  ;04.12.2018;FEY;;LION;49;14500;7200;192;5;47;49;8400;3000;3643;3644;1;12994;24.94;26.24;27,9;BCS1388054;1;4
009574;14.10.2021;12:41:14;Stop          ;04.12.2018;FEY;;LION;49;14500;7200;128;5;47;49;8400;3000;3730;3681;1;12479;25.04;29.64;28,2;BCS1388054;1;4
009574;01.11.2021;09:52:20;Normalcharge  ;04.12.2018;FEY;;LION;49;14500;7200;192;5;47;49;8400;3000;3641;3643;1;12994;26.14;26.04;26,4;BCS1388054;1;4
009574;01.11.2021;09:53:13;Stop          ;04.12.2018;FEY;;LION;49;14500;7200;128;5;47;49;8400;3000;3725;3678;1;12475;26.14;28.34;26,8;BCS1388054;1;4
009574;01.11.2021;10:01:59;Normalcharge  ;04.12.2018;FEY;;LION;49;14500;7200;192;5;47;49;8400;3000;3643;3644;1;12991;26.24;27.54;29,5;BCS1388054;1;4
009574;01.11.2021;10:03:29;Stop          ;04.12.2018;FEY;;LION;49;14500;7200;128;5;47;49;8400;3000;3732;3686;1;12467;26.34;30.34;29,3;BCS1388054;1;4
009574;01.11.2021;10:27:58;Normalcharge  ;04.12.2018;FEY;;LION;49;14500;7200;192;5;47;49;8400;3000;3645;3646;1;12993;26.54;26.54;27,8;BCS1388054;1;4
009574;01.11.2021;10:28:31;Stop          ;04.12.2018;FEY;;LION;49;14500;7200;128;5;47;49;8400;3000;3678;3661;1;12680;26.54;27.74;28,1;BCS1388054;1;4
009574;01.11.2021;10:31:48;Charge to 60% ;04.12.2018;FEY;;LION;49;14500;7200;192;5;47;49;8400;3000;3646;3647;1;12989;26.54;24.94;29,9;BCS1388054;1;4
009574;01.11.2021;11:39:51;Stop          ;04.12.2018;FEY;;LION;49;14500;7200;192;5;57;60;8400;3000;3734;3736;1;12988;28.84;28.64;32,5;BCS1388054;1;4
009574;09.02.2022;08:16:46;Normalcharge  ;04.12.2018;FEY;;LION;49;14500;7200;192;5;53;55;8400;3000;3696;3698;1;13006;22.84;22.74;23,1;BCS1388054;3;1
009574;09.02.2022;12:49:53;Stop           ;04.12.2018;FEY;;LION;49;14500;7200;224;5;97;100;8400;;4159;4157;1;13001;26.54;27.34;29,9;BCS1388054;3;1
009574;14.03.2022;12:14:26;Normalcharge  ;04.12.2018;FEY;;LION;49;14500;7200;224;5;95;99;8400;;4129;4128;1;13007;24.34;24.04;27,5;BCS1388054;5;1
009574;14.03.2022;12:18:30;Stop          ;04.12.2018;FEY;;LION;49;14500;7200;224;5;95;99;8400;;4129;4128;1;13004;24.44;25.74;29,5;BCS1388054;5;1