File: reader/Batterieverzeichnis_new/009548.txt
Serialnumber ; Date ; Time ; Action ; Date of Manufacture ; Manufacturer ; Battery Name ; Device-Chemistry ; Specification-Info ; Design-Capacity [mAh] ; Design-Voltage [mV] ; Battery Status ; Cycle Count ; SOC [%] ; Relativ SOC[%] ; Desired Voltage [mV]; Desired Current [mA]; Cell Voltage 1 [mV] ; Cell Voltage 2 [mV] ; Max_Error [%] ; Busvoltage[mV] ; Battery Temperature [°C] ; Charger Temperature [°C] ; Batterysystem ; Case ; PLace
009548;24.11.2020;08:56:08;Normalcharge  ;04.12.2018;FEY;;LION;49;14500;7200;192;1;78;80;8400;3000;3934;3934;1;13016;23.34;25.24;25,7;BCS1388054;1;16
009548;24.11.2020;08:59:34;Stop          ;04.12.2018;FEY;;LION;49;14500;7200;128;1;79;81;8400;3000;4036;3987;1;12915;23.74;29.84;26,4;BCS1388054;1;16
009548;24.11.2020;08:59:41;Normalcharge  ;04.12.2018;FEY;;LION;49;14500;7200;128;1;79;81;8400;3000;3953;3955;1;13012;23.74;29.64;26,4;BCS1388054;1;16
009548;24.11.2020;16:23:04;Stop          ;04.12.2018;FEY;;LION;49;14500;7200;224;1;98;100;8400;;4153;4152;1;13010;26.14;27.74;28,5;BCS1388054;1;16
009548;07.12.2020;04:14:17;Cycle         ;04.12.2018;FEY;;LION;49;14500;7200;224;1;97;100;8400;;4142;4141;1;13005;25.34;27.54;30,3;BCS1388054;1;6
009548;08.12.2020;16:19:38;Stop          ;04.12.2018;FEY;;LION;49;14500;7200;224;2;97;100;8400;;4152;4153;1;13004;26.94;28.64;31,9;BCS1388054;1;6
009548;03.03.2021;08:17:40;Normalcharge  ;04.12.2018;FEY;;LION;49;14500;7200;192;2;67;70;8400;3000;3849;3850;1;13007;22.74;22.84;23,6;BCS1388054;6;12
009548;03.03.2021;11:56:52;Stop          ;04.12.2018;FEY;;LION;49;14500;7200;224;2;97;100;8400;;4159;4159;1;12999;27.34;27.44;31,7;BCS1388054;6;12
009548;06.04.2021;08:38:46;Normalcharge  ;04.12.2018;FEY;;LION;49;14500;7200;224;2;95;99;8400;;4132;4131;1;13013;20.54;26.04;28,1;BCS1388054;2;5
009548;06.04.2021;08:39:36;Stop          ;04.12.2018;FEY;;LION;49;14500;7200;224;2;95;99;8400;;4132;4131;1;13010;20.64;26.44;28,2;BCS1388054;2;5
009548;08.04.2021;07:57:57;Normalcharge  ;04.12.2018;FEY;;LION;49;14500;7200;224;2;95;99;8400;;4132;4131;1;13013;24.94;26.24;26,3;BCS1388054;2;5
009548;08.04.2021;07:59:45;Stop          ;04.12.2018;FEY;;LION;49;14500;7200;224;2;95;99;8400;;4132;4131;1;13009;24.94;26.94;26,8;BCS1388054;2;5
009548;08.04.2021;10:35:00;Normalcharge  ;04.12.2018;FEY;;LION;49;14500;7200;224;2;95;99;8400;;4132;4131;1;13013;25.34;26.64;28,1;BCS1388054;2;5
009548;08.04.2021;10:36:53;Stop          ;04.12.2018;FEY;;LION;49;14500;7200;224;2;95;99;8400;;4132;4131;1;13009;25.34;27.54;28,9;BCS1388054;2;5
009548;18.04.2021;08:33:36;Normalcharge  ;04.12.2018;FEY;;LION;49;14500;7200;224;2;95;99;8400;;4128;4127;1;13009;25.84;27.64;27,7;BCS1388054;2;5
009548;18.04.2021;08:33:44;Stop          ;04.12.2018;FEY;;LION;49;14500;7200;224;2;95;99;8400;;4128;4127;1;13011;25.84;27.64;27,8;BCS1388054;2;5
009548;04.08.2021;07:24:55;Normalcharge  ;04.12.2018;FEY;;LION;49;14500;7200;192;2;92;96;8400;;4093;4093;1;13001;30.14;31.94;31,5;BCS1388054;2;5
009548;04.08.2021;07:25:47;Stop          ;04.12.2018;FEY;;LION;49;14500;7200;192;2;92;96;8400;;4093;4093;1;12998;30.14;32.24;31,9;BCS1388054;2;5
009548;22.08.2021;11:07:59;Normalcharge  ;04.12.2018;FEY;;LION;49;14500;7200;192;2;68;71;8400;3000;3851;3852;1;12998;22.54;30.34;32,1;BCS1388054;3;1
009548;22.08.2021;11:08:33;Stop           ;04.12.2018;FEY;;LION;49;14500;7200;128;2;68;71;8400;3000;3905;3875;1;12711;22.64;31.44;32,4;BCS1388054;3;1
009548;12.10.2021;12:15:28;Normalcharge  ;04.12.2018;FEY;;LION;49;14500;7200;192;2;67;70;8400;3000;3830;3830;1;12986;23.24;27.14;27,9;BCS1388054;2;7
009548;12.10.2021;12:15:46;Stop          ;04.12.2018;FEY;;LION;49;14500;7200;192;2;67;70;8400;3000;3830;3830;1;12983;23.24;27.74;27,9;BCS1388054;2;7
009548;14.10.2021;12:40:22;Normalcharge  ;04.12.2018;FEY;;LION;49;14500;7200;192;2;67;70;8400;3000;3830;3830;1;13007;23.14;26.44;28,1;BCS1388054;7;9
009548;14.10.2021;12:42:05;Stop          ;04.12.2018;FEY;;LION;49;14500;7200;128;2;67;70;8400;3000;3929;3879;1;12720;23.24;29.84;28,5;BCS1388054;7;9
009548;07.02.2022;08:51:51;Normalcharge  ;04.12.2018;FEY;;LION;49;14500;7200;192;2;64;66;8400;3000;3797;3798;1;12992;22.04;23.44;25,6;BCS1388054;1;12
009548;07.02.2022;13:16:30;Stop          ;04.12.2018;FEY;;LION;49;14500;7200;224;2;97;100;8400;;4155;4154;1;12989;24.84;26.84;31,2;BCS1388054;1;12
009548;14.03.2022;12:14:44;Normalcharge  ;04.12.2018;FEY;;LION;49;14500;7200;224;2;96;99;8400;;4129;4128;1;13002;24.04;25.14;27,7;BCS1388054;1;17
009548;14.03.2022;12:15:19;Stop          ;04.12.2018;FEY;;LION;49;14500;7200;224;2;96;99;8400;;4129;4128;1;13001;24.04;25.24;27,9;BCS1388054;1;17
009548;14.03.2022;12:15:29;Normalcharge  ;04.12.2018;FEY;;LION;49;14500;7200;224;2;96;99;8400;;4129;4128;1;13000;24.04;25.34;28,1;BCS1388054;1;17
009548;14.03.2022;12:16:01;Stop          ;04.12.2018;FEY;;LION;49;14500;7200;224;2;96;99;8400;;4129;4128;1;13001;24.04;25.44;28,4;BCS1388054;1;17
009548;14.03.2022;12:17:43;Normalcharge  ;04.12.2018;FEY;;LION;49;14500;7200;224;2;96;99;8400;;4129;4128;1;13000;24.04;25.74;29,2;BCS1388054;1;17
009548;14.03.2022;12:18:20;Stop          ;04.12.2018;FEY;;LION;49;14500;7200;224;2;96;99;8400;;4129;4128;1;13000;24.14;25.74;29,3;BCS1388054;1;17
009548;14.03.2022;12:19:16;Normalcharge  ;04.12.2018;FEY;;LION;49;14500;7200;224;2;96;99;8400;;4129;4128;1;13000;24.14;25.84;29,5;BCS1388054;1;17
009548;14.03.2022;12:19:20;Stop          ;04.12.2018;FEY;;LION;49;14500;7200;224;2;96;99;8400;;4129;4128;1;13000;24.14;25.84;29,6;BCS1388054;1;17