File: reader/Batterieverzeichnis_new/009564.txt
Serialnumber ; Date ; Time ; Action ; Date of Manufacture ; Manufacturer ; Battery Name ; Device-Chemistry ; Specification-Info ; Design-Capacity [mAh] ; Design-Voltage [mV] ; Battery Status ; Cycle Count ; SOC [%] ; Relativ SOC[%] ; Desired Voltage [mV]; Desired Current [mA]; Cell Voltage 1 [mV] ; Cell Voltage 2 [mV] ; Max_Error [%] ; Busvoltage[mV] ; Battery Temperature [°C] ; Charger Temperature [°C] ; Batterysystem ; Case ; PLace
009564;07.12.2020;04:14:36;Cycle         ;03.12.2018;FEY;;LION;49;14500;7200;192;1;98;97;8400;;4137;4136;1;13010;24.44;28.24;30,3;BCS1388054;6;17
009564;08.12.2020;16:20:13;Stop          ;03.12.2018;FEY;;LION;49;14500;7200;192;1;98;97;8400;;4135;4134;1;13009;26.44;29.94;31,9;BCS1388054;6;17
009564;12.01.2021;04:17:40;Charge to 90% ;03.12.2018;FEY;;LION;49;14500;7200;192;2;92;91;8400;3000;4066;4065;1;13001;21.84;23.34;23,6;BCS1388054;6;7
009564;12.01.2021;05:00:55;Stop          ;03.12.2018;FEY;;LION;49;14500;7200;192;2;91;90;8400;3000;4058;4058;1;12994;25.24;29.54;31,2;BCS1388054;6;7
009564;12.01.2021;05:21:57;Cycle         ;03.12.2018;FEY;;LION;49;14500;7200;192;2;91;90;8400;3000;4058;4058;1;12996;25.64;28.24;30,4;BCS1388054;6;7
009564;13.01.2021;08:31:18;Stop          ;03.12.2018;FEY;;LION;49;14500;7200;224;3;97;100;8400;;4156;4157;1;12997;25.84;28.24;31,1;BCS1388054;6;7
009564;21.02.2021;13:43:49;Normalcharge  ;03.12.2018;FEY;;LION;49;14500;7200;224;3;96;99;8400;;4131;4132;1;13014;21.64;23.04;27,7;BCS1388054;3;15
009564;21.02.2021;20:44:52;Stop           ;03.12.2018;FEY;;LION;49;14500;7200;224;3;96;99;8400;;4131;4132;1;13010;25.44;28.04;31,2;BCS1388054;3;15
009564;06.04.2021;08:39:10;Normalcharge  ;03.12.2018;FEY;;LION;49;14500;7200;224;3;96;99;8400;;4115;4116;1;13007;20.64;25.24;28,1;BCS1388054;5;12
009564;06.04.2021;08:39:58;Stop          ;03.12.2018;FEY;;LION;49;14500;7200;224;3;96;99;8400;;4115;4116;1;13007;20.74;25.34;28,4;BCS1388054;5;12
009564;08.04.2021;07:58:30;Normalcharge  ;03.12.2018;FEY;;LION;49;14500;7200;192;3;95;97;8400;;4115;4115;1;13008;23.94;25.54;26,4;BCS1388054;5;12
009564;08.04.2021;07:59:28;Stop          ;03.12.2018;FEY;;LION;49;14500;7200;192;3;95;97;8400;;4115;4115;1;13006;23.94;25.84;26,7;BCS1388054;5;12
009564;08.04.2021;10:36:12;Normalcharge  ;03.12.2018;FEY;;LION;49;14500;7200;192;3;95;97;8400;;4115;4115;1;13006;24.14;26.14;28,6;BCS1388054;5;12
009564;08.04.2021;10:37:06;Stop          ;03.12.2018;FEY;;LION;49;14500;7200;192;3;95;97;8400;;4115;4115;1;13007;24.14;26.34;29,0;BCS1388054;5;12
009564;18.04.2021;08:34:16;Normalcharge  ;03.12.2018;FEY;;LION;49;14500;7200;192;3;95;97;8400;;4112;4112;1;13005;24.94;26.84;28,1;BCS1388054;5;12
009564;18.04.2021;08:34:27;Stop          ;03.12.2018;FEY;;LION;49;14500;7200;192;3;95;97;8400;;4112;4112;1;13005;24.94;26.84;28,2;BCS1388054;5;12
009564;04.08.2021;07:24:41;Normalcharge  ;03.12.2018;FEY;;LION;49;14500;7200;192;3;95;97;8400;;4083;4083;1;13001;28.94;30.94;31,5;BCS1388054;5;12
009564;04.08.2021;07:25:23;Stop          ;03.12.2018;FEY;;LION;49;14500;7200;192;3;95;97;8400;;4083;4083;1;13000;28.94;31.04;31,6;BCS1388054;5;12
009564;22.08.2021;11:37:17;Normalcharge  ;03.12.2018;FEY;;LION;49;14500;7200;192;3;92;94;8400;3000;4078;4078;1;12996;21.14;29.14;31,9;BCS1388054;6;14
009564;22.08.2021;11:37:57;Stop          ;03.12.2018;FEY;;LION;49;14500;7200;128;3;92;94;8400;3000;4107;4095;1;12843;21.24;30.54;32,0;BCS1388054;6;14
009564;12.10.2021;12:15:20;Normalcharge  ;03.12.2018;FEY;;LION;49;14500;7200;192;3;91;94;8400;3000;4063;4064;1;12986;22.14;27.44;27,9;BCS1388054;1;12
009564;12.10.2021;12:15:34;Stop          ;03.12.2018;FEY;;LION;49;14500;7200;192;3;91;94;8400;3000;4063;4064;1;12972;22.24;27.94;27,9;BCS1388054;1;12
009564;14.10.2021;12:40:07;Normalcharge  ;03.12.2018;FEY;;LION;49;14500;7200;192;3;91;94;8400;3000;4063;4063;1;12992;23.94;26.94;27,9;BCS1388054;4;2
009564;14.10.2021;12:41:43;Stop          ;03.12.2018;FEY;;LION;49;14500;7200;128;3;92;94;8400;3000;4132;4104;1;12669;24.04;30.44;28,4;BCS1388054;4;2
009564;14.03.2022;10:33:51;Normalcharge  ;03.12.2018;FEY;;LION;49;14500;7200;192;3;64;66;8400;3000;3792;3793;1;13012;22.94;24.84;25,3;BCS1388054;5;11
009564;14.03.2022;10:38:12;Stop          ;03.12.2018;FEY;;LION;49;14500;7200;128;3;64;67;8400;3000;3901;3854;1;12686;23.14;29.34;28,1;BCS1388054;5;11
009564;17.05.2022;08:54:14;Normalcharge  ;03.12.2018;FEY;;LION;49;14500;7200;192;3;62;65;8400;3000;3776;3776;1;13004;27.24;30.74;30,8;BCS1388054;3;13
009564;17.05.2022;12:55:21;Stop           ;03.12.2018;FEY;;LION;49;14500;7200;224;3;97;100;8400;;4165;4166;1;13001;30.34;34.54;34,1;BCS1388054;3;13