File: reader/Batterieverzeichnis_new/009579.txt
Serialnumber ; Date ; Time ; Action ; Date of Manufacture ; Manufacturer ; Battery Name ; Device-Chemistry ; Specification-Info ; Design-Capacity [mAh] ; Design-Voltage [mV] ; Battery Status ; Cycle Count ; SOC [%] ; Relativ SOC[%] ; Desired Voltage [mV]; Desired Current [mA]; Cell Voltage 1 [mV] ; Cell Voltage 2 [mV] ; Max_Error [%] ; Busvoltage[mV] ; Battery Temperature [°C] ; Charger Temperature [°C] ; Batterysystem ; Case ; PLace
009579;07.12.2020;04:14:32;Cycle         ;04.12.2018;FEY;;LION;49;14500;7200;192;3;98;98;8400;;4138;4139;1;13010;25.74;27.54;30,3;BCS1388054;5;9
009579;08.12.2020;16:20:01;Stop          ;04.12.2018;FEY;;LION;49;14500;7200;192;3;98;98;8400;;4137;4137;1;13008;27.94;29.14;31,7;BCS1388054;5;9
009579;12.01.2021;04:17:40;Charge to 90% ;04.12.2018;FEY;;LION;49;14500;7200;192;3;97;97;8400;;4123;4123;1;13002;23.14;24.94;23,6;BCS1388054;6;2
009579;12.01.2021;05:00:55;Stop          ;04.12.2018;FEY;;LION;49;14500;7200;192;3;90;90;8400;3000;4059;4058;1;12998;27.14;31.44;31,2;BCS1388054;6;2
009579;12.01.2021;05:21:57;Cycle         ;04.12.2018;FEY;;LION;49;14500;7200;192;3;90;90;8400;3000;4062;4061;1;12999;27.14;30.14;30,4;BCS1388054;6;2
009579;13.01.2021;08:31:18;Stop          ;04.12.2018;FEY;;LION;49;14500;7200;224;4;98;100;8400;;4155;4156;1;12997;26.94;30.24;31,1;BCS1388054;6;2
009579;22.02.2021;17:31:46;Normalcharge  ;04.12.2018;FEY;;LION;49;14500;7200;192;5;43;44;8400;3000;3621;3620;1;12991;25.74;27.54;31,6;BCS1388054;1;2
009579;22.02.2021;23:06:28;Stop          ;04.12.2018;FEY;;LION;49;14500;7200;224;5;98;100;8400;;4160;4160;1;12991;26.84;28.44;30,6;BCS1388054;1;2
009579;04.04.2021;11:49:55;Normalcharge  ;04.12.2018;FEY;;LION;49;14500;7200;192;6;55;55;8400;3000;3703;3700;1;13025;25.04;25.04;27,5;BCS1388054;7;11
009579;04.04.2021;11:51:17;Stop          ;04.12.2018;FEY;;LION;49;14500;7200;128;6;55;56;8400;3000;3789;3740;1;12738;25.14;27.74;28,4;BCS1388054;7;11
009579;05.04.2021;09:37:37;Charge to 60% ;04.12.2018;FEY;;LION;49;14500;7200;192;6;55;56;8400;3000;3705;3702;1;12998;25.04;26.84;26,0;BCS1388054;1;8
009579;05.04.2021;10:01:53;Stop          ;04.12.2018;FEY;;LION;49;14500;7200;192;6;59;60;8400;3000;3762;3756;1;12995;26.84;29.84;31,2;BCS1388054;1;8
009579;22.08.2021;11:07:55;Normalcharge  ;04.12.2018;FEY;;LION;49;14500;7200;192;6;45;46;8400;3000;3623;3622;1;12995;22.64;30.44;32,0;BCS1388054;2;1
009579;22.08.2021;11:08:28;Stop          ;04.12.2018;FEY;;LION;49;14500;7200;128;6;45;46;8400;3000;3666;3641;1;12641;22.74;31.44;32,4;BCS1388054;2;1
009579;25.08.2021;08:14:57;Charge to 60% ;04.12.2018;FEY;;LION;49;14500;7200;192;6;45;45;8400;3000;3625;3624;1;13000;30.44;32.74;33,2;BCS1388054;6;3
009579;25.08.2021;09:50:39;Stop          ;04.12.2018;FEY;;LION;49;14500;7200;192;6;59;60;8400;3000;3738;3736;1;12999;33.94;35.74;36,4;BCS1388054;6;3
009579;01.11.2021;09:52:06;Normalcharge  ;04.12.2018;FEY;;LION;49;14500;7200;192;6;11;12;8400;3000;3363;3361;1;13002;24.34;24.84;26,3;BCS1388054;4;14
009579;01.11.2021;09:53:35;Stop          ;04.12.2018;FEY;;LION;49;14500;7200;128;6;12;12;8400;3000;3472;3424;1;12607;24.44;28.84;27,1;BCS1388054;4;14
009579;01.11.2021;10:02:14;Normalcharge  ;04.12.2018;FEY;;LION;49;14500;7200;192;6;12;12;8400;3000;3366;3364;1;12995;24.74;27.34;29,5;BCS1388054;4;14
009579;01.11.2021;10:03:16;Stop          ;04.12.2018;FEY;;LION;49;14500;7200;128;6;12;12;8400;3000;3473;3423;1;12583;24.84;30.04;29,3;BCS1388054;4;14
009579;01.11.2021;10:18:21;Normalcharge  ;04.12.2018;FEY;;LION;49;14500;7200;192;6;12;12;8400;3000;3368;3366;1;12997;25.24;26.44;28,4;BCS1388054;4;14
009579;01.11.2021;10:19:03;Stop          ;04.12.2018;FEY;;LION;49;14500;7200;128;6;12;12;8400;3000;3469;3421;1;12564;25.34;28.64;28,2;BCS1388054;4;14
009579;01.11.2021;10:28:22;Normalcharge  ;04.12.2018;FEY;;LION;49;14500;7200;192;6;12;12;8400;3000;3369;3367;1;13002;25.54;26.74;27,9;BCS1388054;4;14
009579;01.11.2021;10:29:09;Stop          ;04.12.2018;FEY;;LION;49;14500;7200;128;6;12;12;8400;3000;3469;3421;1;12575;25.54;29.04;28,5;BCS1388054;4;14
009579;01.11.2021;10:32:29;Charge to 60% ;04.12.2018;FEY;;LION;49;14500;7200;192;6;12;12;8400;3000;3370;3368;1;13003;25.64;27.24;29,7;BCS1388054;4;14
009579;01.11.2021;15:19:33;Stop          ;04.12.2018;FEY;;LION;49;14500;7200;192;6;59;60;8400;3000;3765;3759;1;13001;29.04;30.04;32,7;BCS1388054;4;14
009579;07.02.2022;08:50:52;Normalcharge  ;04.12.2018;FEY;;LION;49;14500;7200;192;6;57;57;8400;3000;3717;3714;1;13005;22.24;21.64;25,0;BCS1388054;5;6
009579;07.02.2022;13:22:36;Stop          ;04.12.2018;FEY;;LION;49;14500;7200;224;6;99;100;8400;;4159;4158;1;13000;26.64;25.54;28,5;BCS1388054;5;6
009579;14.03.2022;10:34:06;Normalcharge  ;04.12.2018;FEY;;LION;49;14500;7200;192;7;79;80;8400;3000;3930;3928;1;13007;24.34;25.64;25,4;BCS1388054;3;13
009579;14.03.2022;10:38:27;Stop           ;04.12.2018;FEY;;LION;49;14500;7200;128;7;80;81;8400;3000;4033;3985;1;12616;24.54;32.54;28,1;BCS1388054;3;13