File: reader/Batterieverzeichnis_new/009517.txt
Serialnumber ; Date ; Time ; Action ; Date of Manufacture ; Manufacturer ; Battery Name ; Device-Chemistry ; Specification-Info ; Design-Capacity [mAh] ; Design-Voltage [mV] ; Battery Status ; Cycle Count ; SOC [%] ; Relativ SOC[%] ; Desired Voltage [mV]; Desired Current [mA]; Cell Voltage 1 [mV] ; Cell Voltage 2 [mV] ; Max_Error [%] ; Busvoltage[mV] ; Battery Temperature [°C] ; Charger Temperature [°C] ; Batterysystem ; Case ; PLace
009517;30.11.2020;09:42:55;Stop          ;04.12.2018;FEY;;LION;49;14500;7200;192;3;97;98;8400;;4140;4140;1;13022;27.54;27.54;31,7;BCS1388054;7;6
009517;12.01.2021;04:17:36;Charge to 90% ;04.12.2018;FEY;;LION;49;14500;7200;192;3;96;96;8400;;4123;4123;1;13016;23.14;24.64;23,6;BCS1388054;5;15
009517;12.01.2021;05:15:37;Stop          ;04.12.2018;FEY;;LION;49;14500;7200;192;3;90;90;8400;3000;4064;4064;1;13011;26.84;29.94;31,6;BCS1388054;5;15
009517;12.01.2021;05:21:53;Cycle         ;04.12.2018;FEY;;LION;49;14500;7200;192;3;90;90;8400;3000;4065;4065;1;13012;26.94;29.54;30,6;BCS1388054;5;15
009517;13.01.2021;08:31:10;Stop          ;04.12.2018;FEY;;LION;49;14500;7200;224;4;96;100;8400;;4155;4154;1;13011;27.14;29.54;31,1;BCS1388054;5;15
009517;22.02.2021;17:31:46;Normalcharge  ;04.12.2018;FEY;;LION;49;14500;7200;192;5;50;52;8400;3000;3672;3671;1;12994;26.04;27.74;31,6;BCS1388054;1;8
009517;22.02.2021;23:06:28;Stop          ;04.12.2018;FEY;;LION;49;14500;7200;224;5;98;100;8400;;4155;4155;1;12996;26.94;28.64;30,6;BCS1388054;1;8
009517;04.04.2021;11:50:39;Normalcharge  ;04.12.2018;FEY;;LION;49;14500;7200;192;5;53;54;8400;3000;3691;3691;1;13002;24.94;26.14;28,1;BCS1388054;1;17
009517;04.04.2021;11:51:54;Stop          ;04.12.2018;FEY;;LION;49;14500;7200;128;5;53;54;8400;3000;3779;3732;1;12554;25.04;29.14;28,8;BCS1388054;1;17
009517;05.04.2021;09:37:46;Charge to 60% ;04.12.2018;FEY;;LION;49;14500;7200;192;5;53;55;8400;3000;3693;3693;1;13015;25.14;26.04;26,1;BCS1388054;2;9
009517;05.04.2021;10:03:48;Stop          ;04.12.2018;FEY;;LION;49;14500;7200;192;5;58;60;8400;3000;3763;3765;1;13011;27.14;30.04;31,4;BCS1388054;2;9
009517;22.08.2021;11:07:56;Normalcharge  ;04.12.2018;FEY;;LION;49;14500;7200;192;5;45;46;8400;3000;3623;3623;1;12992;22.34;30.44;32,0;BCS1388054;2;17
009517;22.08.2021;11:08:29;Stop          ;04.12.2018;FEY;;LION;49;14500;7200;128;5;45;46;8400;3000;3666;3642;1;12614;22.44;31.64;32,4;BCS1388054;2;17
009517;25.08.2021;08:14:57;Charge to 60% ;04.12.2018;FEY;;LION;49;14500;7200;192;5;44;46;8400;3000;3625;3625;1;12987;30.24;32.44;33,2;BCS1388054;6;8
009517;25.08.2021;09:50:39;Stop          ;04.12.2018;FEY;;LION;49;14500;7200;192;5;58;60;8400;3000;3738;3739;1;12986;34.34;35.64;36,4;BCS1388054;6;8
009517;01.11.2021;09:52:11;Normalcharge  ;04.12.2018;FEY;;LION;49;14500;7200;192;5;52;54;8400;3000;3687;3686;1;13009;24.34;24.34;26,4;BCS1388054;3;17
009517;01.11.2021;09:53:27;Stop           ;04.12.2018;FEY;;LION;49;14500;7200;128;5;53;54;8400;3000;3777;3728;1;12590;24.44;27.64;27,1;BCS1388054;3;17
009517;01.11.2021;10:02:09;Normalcharge  ;04.12.2018;FEY;;LION;49;14500;7200;192;5;53;54;8400;3000;3689;3689;1;13004;24.74;26.44;29,5;BCS1388054;3;17
009517;01.11.2021;10:03:20;Stop           ;04.12.2018;FEY;;LION;49;14500;7200;128;5;53;54;8400;3000;3778;3730;1;12593;24.84;29.24;29,5;BCS1388054;3;17
009517;01.11.2021;10:18:16;Normalcharge  ;04.12.2018;FEY;;LION;49;14500;7200;192;5;53;54;8400;3000;3691;3691;1;13006;25.24;25.94;28,2;BCS1388054;3;17
009517;01.11.2021;10:18:56;Stop           ;04.12.2018;FEY;;LION;49;14500;7200;128;5;53;54;8400;3000;3770;3725;1;12596;25.34;27.64;28,2;BCS1388054;3;17
009517;01.11.2021;10:27:50;Normalcharge  ;04.12.2018;FEY;;LION;49;14500;7200;192;5;53;54;8400;3000;3692;3691;1;13006;25.54;26.14;27,8;BCS1388054;3;17
009517;01.11.2021;10:29:05;Stop           ;04.12.2018;FEY;;LION;49;14500;7200;128;5;53;55;8400;3000;3781;3734;1;12558;25.64;29.34;28,5;BCS1388054;3;17
009517;01.11.2021;10:32:24;Ladung auf 60% ;04.12.2018;FEY;;LION;49;14500;7200;192;5;53;55;8400;3000;3695;3694;1;13010;25.74;27.14;29,7;BCS1388054;3;17
009517;01.11.2021;15:19:46;Stop           ;04.12.2018;FEY;;LION;49;14500;7200;192;5;58;60;8400;3000;3749;3749;1;13010;28.74;29.64;32,7;BCS1388054;3;17
009517;09.02.2022;08:16:56;Normalcharge  ;04.12.2018;FEY;;LION;49;14500;7200;192;5;56;57;8400;3000;3712;3711;1;13012;22.44;23.54;23,1;BCS1388054;2;3
009517;09.02.2022;12:43:52;Stop          ;04.12.2018;FEY;;LION;49;14500;7200;224;5;98;100;8400;;4160;4160;1;13006;26.24;28.14;29,9;BCS1388054;2;3