File: reader/Batterieverzeichnis_new/009540.txt
Serialnumber ; Date ; Time ; Action ; Date of Manufacture ; Manufacturer ; Battery Name ; Device-Chemistry ; Specification-Info ; Design-Capacity [mAh] ; Design-Voltage [mV] ; Battery Status ; Cycle Count ; SOC [%] ; Relativ SOC[%] ; Desired Voltage [mV]; Desired Current [mA]; Cell Voltage 1 [mV] ; Cell Voltage 2 [mV] ; Max_Error [%] ; Busvoltage[mV] ; Battery Temperature [°C] ; Charger Temperature [°C] ; Batterysystem ; Case ; PLace
009540;10.12.2019;15:28:54;Charge to 30% ;04.12.2018;FEY;;LION;49;14500;7200;224;47;93;100;8400;;4130;4131;1;13024;22.74;25.04;27,1;BCS1388054;4;10
009540;10.12.2019;20:47:57;Stop          ;04.12.2018;FEY;;LION;49;14500;7200;192;48;29;30;8400;3000;3560;3561;1;13021;34.14;33.64;33,4;BCS1388054;4;10
009540;11.12.2019;08:48:41;Fastcharge    ;04.12.2018;FEY;;LION;49;14500;7200;192;48;29;30;8400;3000;3568;3569;1;13023;26.64;28.54;31,9;BCS1388054;4;10
009540;11.12.2019;13:42:44;Stop          ;04.12.2018;FEY;;LION;49;14500;7200;224;48;94;100;8400;;4160;4160;1;13022;30.84;30.24;31,9;BCS1388054;4;10
009540;11.12.2019;15:46:31;Charge to 10% ;04.12.2018;FEY;;LION;49;14500;7200;224;48;96;100;8400;;4153;4153;1;13022;27.64;28.64;31,4;BCS1388054;4;10
009540;11.12.2019;22:50:44;Stop          ;04.12.2018;FEY;;LION;49;14500;7200;192;49;10;10;8400;3000;3357;3359;1;13022;34.84;33.64;33,2;BCS1388054;4;10
009540;12.12.2019;08:45:03;Normalcharge  ;04.12.2018;FEY;;LION;49;14500;7200;192;49;9;10;8400;3000;3366;3367;1;13021;26.84;28.54;31,9;BCS1388054;4;10
009540;12.12.2019;16:41:48;Stop          ;04.12.2018;FEY;;LION;49;14500;7200;224;49;96;100;8400;;4158;4158;1;13021;29.84;29.94;31,5;BCS1388054;4;10
009540;13.12.2019;10:48:01;Charge to 10% ;04.12.2018;FEY;;LION;49;14500;7200;224;49;95;100;8400;;4149;4148;1;13023;26.84;28.84;32,0;BCS1388054;4;10
009540;13.12.2019;15:42:25;Stop          ;04.12.2018;FEY;;LION;49;14500;7200;192;50;34;36;8400;3000;3499;3552;1;13524;33.54;38.94;34,6;BCS1388054;4;10
009540;13.12.2019;15:42:27;Cycle         ;04.12.2018;FEY;;LION;49;14500;7200;192;50;34;36;8400;3000;3499;3552;1;13524;33.54;38.94;34,6;BCS1388054;4;10
009540;14.12.2019;22:44:28;Stop          ;04.12.2018;FEY;;LION;49;14500;7200;224;51;93;99;8400;;4151;4153;1;13022;27.04;28.74;32,0;BCS1388054;4;10
009540;16.12.2019;07:43:14;Charge to 10% ;04.12.2018;FEY;;LION;49;14500;7200;224;51;93;100;8400;;4146;4147;1;13022;26.64;28.04;31,9;BCS1388054;4;10
009540;16.12.2019;14:36:44;Stop          ;04.12.2018;FEY;;LION;49;14500;7200;192;52;10;10;8400;3000;3365;3367;1;13022;33.34;32.44;32,4;BCS1388054;4;10
009540;16.12.2019;14:44:13;Charge to 90% ;04.12.2018;FEY;;LION;49;14500;7200;192;52;10;10;8400;3000;3366;3369;1;13022;32.74;31.04;31,7;BCS1388054;4;10
009540;16.12.2019;20:50:27;Stop          ;04.12.2018;FEY;;LION;49;14500;7200;192;52;84;90;8400;3000;4056;4058;1;13022;32.54;31.64;31,6;BCS1388054;4;10
009540;17.12.2019;08:37:49;Fastcharge    ;04.12.2018;FEY;;LION;49;14500;7200;192;52;84;90;8400;3000;4047;4048;1;13021;26.74;28.44;31,6;BCS1388054;4;10
009540;17.12.2019;10:31:06;Stop          ;04.12.2018;FEY;;LION;49;14500;7200;224;52;94;100;8400;;4160;4160;1;13021;28.54;29.44;31,4;BCS1388054;4;10
009540;17.12.2019;13:38:32;Charge to 10% ;04.12.2018;FEY;;LION;49;14500;7200;224;52;94;100;8400;;4150;4150;1;13022;27.04;28.34;30,8;BCS1388054;4;10
009540;17.12.2019;20:34:29;Stop          ;04.12.2018;FEY;;LION;49;14500;7200;192;53;10;10;8400;3000;3365;3367;1;13022;34.94;33.94;34,1;BCS1388054;4;10
009540;18.12.2019;08:31:26;Fastcharge    ;04.12.2018;FEY;;LION;49;14500;7200;192;53;10;10;8400;3000;3374;3376;1;13021;26.84;28.44;31,6;BCS1388054;4;10
009540;18.12.2019;14:29:12;Stop          ;04.12.2018;FEY;;LION;49;14500;7200;224;53;95;100;8400;;4160;4160;1;13023;30.94;30.44;31,9;BCS1388054;4;10
009540;19.12.2019;08:23:58;Charge to 60% ;04.12.2018;FEY;;LION;49;14500;7200;224;53;95;100;8400;;4150;4149;1;13022;26.74;28.54;31,6;BCS1388054;4;10
009540;19.12.2019;11:30:18;Stop          ;04.12.2018;FEY;;LION;49;14500;7200;192;54;58;60;8400;3000;3766;3765;1;13022;34.74;35.04;34,6;BCS1388054;4;10
009540;19.12.2019;12:16:45;Cycle         ;04.12.2018;FEY;;LION;49;14500;7200;192;54;58;60;8400;3000;3777;3776;1;13022;31.44;30.94;32,7;BCS1388054;4;10
009540;20.12.2019;17:30:48;Stop          ;04.12.2018;FEY;;LION;49;14500;7200;224;55;93;100;8400;;4152;4153;1;13022;27.24;28.24;30,6;BCS1388054;4;10
009540;06.01.2020;06:34:50;Charge to 60% ;04.12.2018;FEY;;LION;49;14500;7200;224;55;92;99;8400;;4123;4124;1;13022;27.04;28.64;31,9;BCS1388054;4;10
009540;06.01.2020;09:30:33;Stop          ;04.12.2018;FEY;;LION;49;14500;7200;192;56;57;60;8400;3000;3767;3768;1;13022;33.84;34.24;33,7;BCS1388054;4;10
009540;06.01.2020;09:50:38;Fastcharge    ;04.12.2018;FEY;;LION;49;14500;7200;192;56;57;60;8400;3000;3776;3777;1;13024;32.44;31.74;32,7;BCS1388054;4;10
009540;06.01.2020;13:09:19;Stop          ;04.12.2018;FEY;;LION;49;14500;7200;224;56;94;100;8400;;4159;4160;1;13023;30.44;29.84;31,4;BCS1388054;4;10