File: reader/Batterieverzeichnis_new/009683.txt
Serialnumber ; Date ; Time ; Action ; Date of Manufacture ; Manufacturer ; Battery Name ; Device-Chemistry ; Specification-Info ; Design-Capacity [mAh] ; Design-Voltage [mV] ; Battery Status ; Cycle Count ; SOC [%] ; Relativ SOC[%] ; Desired Voltage [mV]; Desired Current [mA]; Cell Voltage 1 [mV] ; Cell Voltage 2 [mV] ; Max_Error [%] ; Busvoltage[mV] ; Battery Temperature [°C] ; Charger Temperature [°C] ; Batterysystem ; Case ; PLace
009683;07.12.2020;04:14:21;Cycle         ;04.12.2018;FEY;;LION;49;14500;7200;224;3;100;99;8400;;4144;4146;1;12992;25.74;27.34;30,3;BCS1388054;2;13
009683;08.12.2020;16:19:44;Stop          ;04.12.2018;FEY;;LION;49;14500;7200;224;4;98;100;8400;;4151;4153;1;12991;27.84;29.14;31,9;BCS1388054;2;13
009683;03.03.2021;08:17:40;Normalcharge  ;04.12.2018;FEY;;LION;49;14500;7200;192;5;69;70;8400;3000;3853;3854;1;13020;23.24;24.14;23,6;BCS1388054;6;15
009683;03.03.2021;11:56:52;Stop          ;04.12.2018;FEY;;LION;49;14500;7200;224;5;99;100;8400;;4158;4161;1;13012;28.94;30.34;31,7;BCS1388054;6;15
009683;04.04.2021;11:50:28;Normalcharge  ;04.12.2018;FEY;;LION;49;14500;7200;224;5;97;99;8400;;4127;4130;1;13018;25.04;25.84;27,9;BCS1388054;3;14
009683;04.04.2021;11:51:43;Stop           ;04.12.2018;FEY;;LION;49;14500;7200;224;5;97;99;8400;;4128;4130;1;12802;25.14;26.14;28,6;BCS1388054;3;14
009683;22.08.2021;11:37:25;Normalcharge  ;04.12.2018;FEY;;LION;49;14500;7200;192;6;28;30;8400;3000;3560;3561;1;12999;21.64;28.84;31,9;BCS1388054;4;6
009683;22.08.2021;11:38:13;Stop          ;04.12.2018;FEY;;LION;49;14500;7200;128;6;28;30;8400;3000;3636;3597;1;12628;21.74;30.64;32,1;BCS1388054;4;6
009683;25.08.2021;08:15:08;Charge to 60% ;04.12.2018;FEY;;LION;49;14500;7200;192;6;28;30;8400;3000;3562;3564;1;12996;30.54;31.34;33,4;BCS1388054;4;6
009683;25.08.2021;12:59:17;Stop          ;04.12.2018;FEY;;LION;49;14500;7200;192;6;56;60;8400;3000;3752;3753;1;12994;32.74;33.34;36,6;BCS1388054;4;6
009683;01.11.2021;09:52:15;Normalcharge  ;04.12.2018;FEY;;LION;49;14500;7200;192;6;51;55;8400;3000;3715;3716;1;12988;25.94;26.54;26,3;BCS1388054;2;18
009683;01.11.2021;09:53:18;Stop          ;04.12.2018;FEY;;LION;49;14500;7200;128;6;51;55;8400;3000;3802;3758;1;12478;25.94;29.44;26,8;BCS1388054;2;18
009683;01.11.2021;10:02:05;Normalcharge  ;04.12.2018;FEY;;LION;49;14500;7200;192;6;51;55;8400;3000;3717;3719;1;12981;26.14;27.84;29,5;BCS1388054;2;18
009683;01.11.2021;10:03:24;Stop          ;04.12.2018;FEY;;LION;49;14500;7200;128;6;52;55;8400;3000;3809;3764;1;12474;26.24;31.14;29,3;BCS1388054;2;18
009683;01.11.2021;10:18:11;Normalcharge  ;04.12.2018;FEY;;LION;49;14500;7200;192;6;52;55;8400;3000;3721;3723;1;12983;26.34;27.54;28,4;BCS1388054;2;18
009683;01.11.2021;10:18:48;Stop          ;04.12.2018;FEY;;LION;49;14500;7200;128;6;52;55;8400;3000;3783;3750;1;12559;26.44;29.14;28,2;BCS1388054;2;18
009683;01.11.2021;10:28:53;Normalcharge  ;04.12.2018;FEY;;LION;49;14500;7200;192;6;52;55;8400;3000;3722;3723;1;12981;26.44;27.64;28,2;BCS1388054;2;18
009683;01.11.2021;10:29:00;Stop          ;04.12.2018;FEY;;LION;49;14500;7200;192;6;52;55;8400;3000;3722;3723;1;12969;26.44;27.74;28,4;BCS1388054;2;18
009683;01.11.2021;10:32:00;Charge to 60% ;04.12.2018;FEY;;LION;49;14500;7200;192;6;52;55;8400;3000;3722;3724;1;12982;26.44;23.84;29,7;BCS1388054;2;18
009683;01.11.2021;11:53:40;Stop          ;04.12.2018;FEY;;LION;49;14500;7200;192;6;56;60;8400;3000;3792;3795;1;12982;28.34;30.14;32,5;BCS1388054;2;18
009683;09.02.2022;08:16:46;Normalcharge  ;04.12.2018;FEY;;LION;49;14500;7200;192;6;54;57;8400;3000;3729;3731;1;13006;22.54;22.44;23,1;BCS1388054;3;9
009683;09.02.2022;12:49:54;Stop           ;04.12.2018;FEY;;LION;49;14500;7200;224;6;94;100;8400;;4159;4161;1;13003;26.54;26.64;29,9;BCS1388054;3;9