File: reader/Batterieverzeichnis_new/009696.txt
Serialnumber ; Date ; Time ; Action ; Date of Manufacture ; Manufacturer ; Battery Name ; Device-Chemistry ; Specification-Info ; Design-Capacity [mAh] ; Design-Voltage [mV] ; Battery Status ; Cycle Count ; SOC [%] ; Relativ SOC[%] ; Desired Voltage [mV]; Desired Current [mA]; Cell Voltage 1 [mV] ; Cell Voltage 2 [mV] ; Max_Error [%] ; Busvoltage[mV] ; Battery Temperature [°C] ; Charger Temperature [°C] ; Batterysystem ; Case ; PLace
009696;10.12.2019;15:29:01;Charge to 30% ;04.12.2018;FEY;;LION;49;14500;7200;224;39;94;100;8400;;4131;4131;1;13025;22.94;24.44;27,1;BCS1388054;5;18
009696;10.12.2019;20:48:54;Stop          ;04.12.2018;FEY;;LION;49;14500;7200;192;40;29;30;8400;3000;3557;3557;1;13023;32.94;34.84;33,1;BCS1388054;5;18
009696;11.12.2019;08:48:53;Fastcharge    ;04.12.2018;FEY;;LION;49;14500;7200;192;40;29;30;8400;3000;3567;3567;1;13022;26.74;28.04;31,9;BCS1388054;5;18
009696;11.12.2019;13:40:11;Stop          ;04.12.2018;FEY;;LION;49;14500;7200;224;40;95;100;8400;;4164;4163;1;13023;29.54;31.34;32,4;BCS1388054;5;18
009696;11.12.2019;15:46:40;Charge to 10% ;04.12.2018;FEY;;LION;49;14500;7200;224;40;96;100;8400;;4154;4154;1;13023;27.34;28.44;31,4;BCS1388054;5;18
009696;11.12.2019;22:49:07;Stop          ;04.12.2018;FEY;;LION;49;14500;7200;192;41;10;10;8400;3000;3348;3350;1;13022;33.64;36.54;33,5;BCS1388054;5;18
009696;12.12.2019;08:45:10;Normalcharge  ;04.12.2018;FEY;;LION;49;14500;7200;192;41;9;10;8400;3000;3362;3363;1;13023;26.84;28.24;31,7;BCS1388054;5;18
009696;12.12.2019;16:41:20;Stop          ;04.12.2018;FEY;;LION;49;14500;7200;224;41;96;100;8400;;4162;4162;1;13023;28.94;30.44;31,6;BCS1388054;5;18
009696;13.12.2019;10:48:05;Charge to 10% ;04.12.2018;FEY;;LION;49;14500;7200;224;41;96;100;8400;;4149;4149;1;13023;26.84;28.24;32,0;BCS1388054;5;18
009696;13.12.2019;15:40:55;Stop          ;04.12.2018;FEY;;LION;49;14500;7200;192;42;35;37;8400;3000;3505;3556;1;13541;32.34;40.44;34,6;BCS1388054;5;18
009696;13.12.2019;15:41:42;Cycle         ;04.12.2018;FEY;;LION;49;14500;7200;192;42;35;37;8400;3000;3585;3585;1;13023;32.34;37.84;34,5;BCS1388054;5;18
009696;14.12.2019;22:39:35;Stop          ;04.12.2018;FEY;;LION;49;14500;7200;224;43;93;99;8400;;4152;4152;1;13023;26.84;28.14;31,7;BCS1388054;5;18
009696;16.12.2019;07:43:20;Charge to 10% ;04.12.2018;FEY;;LION;49;14500;7200;224;43;94;100;8400;;4146;4146;1;13023;26.54;27.54;31,9;BCS1388054;5;18
009696;16.12.2019;14:34:29;Stop          ;04.12.2018;FEY;;LION;49;14500;7200;192;44;10;10;8400;3000;3359;3361;1;13023;32.04;35.94;32,5;BCS1388054;5;18
009696;16.12.2019;14:44:17;Charge to 90% ;04.12.2018;FEY;;LION;49;14500;7200;192;44;10;10;8400;3000;3365;3367;1;13023;31.14;31.24;31,9;BCS1388054;5;18
009696;16.12.2019;20:48:55;Stop          ;04.12.2018;FEY;;LION;49;14500;7200;192;44;85;90;8400;3000;4061;4062;1;13025;31.34;34.34;31,9;BCS1388054;5;18
009696;17.12.2019;08:37:54;Fastcharge    ;04.12.2018;FEY;;LION;49;14500;7200;192;44;85;90;8400;3000;4046;4047;1;13023;26.74;28.04;31,6;BCS1388054;5;18
009696;17.12.2019;10:33:46;Stop          ;04.12.2018;FEY;;LION;49;14500;7200;224;44;95;100;8400;;4159;4159;1;13023;28.14;29.44;31,1;BCS1388054;5;18
009696;17.12.2019;10:33:46;Stop          ;04.12.2018;FEY;;LION;49;14500;7200;224;44;95;100;8400;;4159;4159;1;13023;28.14;29.44;31,1;BCS1388054;5;18
009696;17.12.2019;13:38:36;Charge to 10% ;04.12.2018;FEY;;LION;49;14500;7200;224;44;95;100;8400;;4151;4150;1;13023;26.94;28.14;30,8;BCS1388054;5;18
009696;17.12.2019;20:33:18;Stop          ;04.12.2018;FEY;;LION;49;14500;7200;192;45;10;10;8400;3000;3359;3361;1;13023;33.64;36.44;34,5;BCS1388054;5;18
009696;18.12.2019;08:31:30;Fastcharge    ;04.12.2018;FEY;;LION;49;14500;7200;192;45;10;10;8400;3000;3371;3372;1;13023;26.84;28.14;31,6;BCS1388054;5;18
009696;18.12.2019;14:29:28;Stop          ;04.12.2018;FEY;;LION;49;14500;7200;224;45;95;100;8400;;4161;4161;1;13023;29.54;30.74;31,7;BCS1388054;5;18
009696;19.12.2019;08:24:02;Charge to 60% ;04.12.2018;FEY;;LION;49;14500;7200;224;45;96;100;8400;;4149;4149;1;13023;26.74;28.04;31,5;BCS1388054;5;18
009696;19.12.2019;11:31:09;Stop          ;04.12.2018;FEY;;LION;49;14500;7200;192;45;58;60;8400;3000;3765;3768;1;13023;33.54;35.84;34,4;BCS1388054;5;18
009696;19.12.2019;12:16:49;Cycle         ;04.12.2018;FEY;;LION;49;14500;7200;192;45;58;60;8400;3000;3776;3780;1;13023;29.84;30.64;32,7;BCS1388054;5;18
009696;20.12.2019;17:27:50;Stop          ;04.12.2018;FEY;;LION;49;14500;7200;224;47;94;100;8400;;4153;4153;1;13023;27.04;28.14;31,0;BCS1388054;5;18
009696;06.01.2020;06:34:55;Charge to 60% ;04.12.2018;FEY;;LION;49;14500;7200;224;47;93;99;8400;;4123;4122;1;13024;27.04;28.34;31,9;BCS1388054;5;18
009696;06.01.2020;09:30:26;Stop          ;04.12.2018;FEY;;LION;49;14500;7200;192;47;57;60;8400;3000;3762;3765;1;13024;32.84;36.24;33,9;BCS1388054;5;18
009696;06.01.2020;09:50:42;Fastcharge    ;04.12.2018;FEY;;LION;49;14500;7200;192;47;57;60;8400;3000;3773;3777;1;13025;30.94;31.24;32,7;BCS1388054;5;18
009696;06.01.2020;13:09:56;Stop          ;04.12.2018;FEY;;LION;49;14500;7200;224;47;95;100;8400;;4160;4161;1;13024;29.14;30.24;31,4;BCS1388054;5;18