File: reader/Batterieverzeichnis_new/009666.txt
Serialnumber ; Date ; Time ; Action ; Date of Manufacture ; Manufacturer ; Battery Name ; Device-Chemistry ; Specification-Info ; Design-Capacity [mAh] ; Design-Voltage [mV] ; Battery Status ; Cycle Count ; SOC [%] ; Relativ SOC[%] ; Desired Voltage [mV]; Desired Current [mA]; Cell Voltage 1 [mV] ; Cell Voltage 2 [mV] ; Max_Error [%] ; Busvoltage[mV] ; Battery Temperature [°C] ; Charger Temperature [°C] ; Batterysystem ; Case ; PLace
009666;07.12.2020;04:14:32;Cycle         ;03.12.2018;FEY;;LION;49;14500;7200;16576;3;97;98;;;4150;4150;1;13002;25.94;26.54;30,3;BCS1388054;5;6
009666;08.12.2020;16:20:01;Stop          ;03.12.2018;FEY;;LION;49;14500;7200;16576;3;97;98;;;4148;4148;1;12998;27.84;27.74;31,7;BCS1388054;5;6
009666;12.01.2021;04:17:33;Charge to 90% ;03.12.2018;FEY;;LION;49;14500;7200;16576;3;96;97;;;4132;4132;1;13009;23.24;22.74;23,6;BCS1388054;4;9
009666;12.01.2021;04:57:16;Stop          ;03.12.2018;FEY;;LION;49;14500;7200;192;3;90;90;8400;3000;4061;4061;1;13003;26.94;28.24;31,6;BCS1388054;4;9
009666;12.01.2021;05:21:49;Cycle         ;03.12.2018;FEY;;LION;49;14500;7200;192;3;90;90;8400;3000;4065;4066;1;13004;27.14;27.04;30,4;BCS1388054;4;9
009666;13.01.2021;08:19:19;Stop          ;03.12.2018;FEY;;LION;49;14500;7200;224;4;98;100;8400;;4156;4156;1;13005;27.54;27.04;30,7;BCS1388054;4;9
009666;21.02.2021;13:44:56;Normalcharge  ;03.12.2018;FEY;;LION;49;14500;7200;192;5;56;57;8400;3000;3717;3719;1;13017;22.94;22.94;27,7;BCS1388054;5;8
009666;21.02.2021;19:31:36;Stop          ;03.12.2018;FEY;;LION;49;14500;7200;224;5;98;100;8400;;4156;4155;1;13011;27.64;28.24;30,6;BCS1388054;5;8
009666;06.04.2021;08:39:03;Normalcharge  ;03.12.2018;FEY;;LION;49;14500;7200;224;5;96;99;8400;;4129;4128;1;13020;21.04;24.34;28,1;BCS1388054;4;18
009666;06.04.2021;08:39:53;Stop          ;03.12.2018;FEY;;LION;49;14500;7200;224;5;96;99;8400;;4129;4128;1;13017;21.14;24.34;28,4;BCS1388054;4;18
009666;08.04.2021;07:58:12;Normalcharge  ;03.12.2018;FEY;;LION;49;14500;7200;224;5;96;99;8400;;4129;4128;1;13019;25.44;20.34;26,3;BCS1388054;4;18
009666;08.04.2021;07:59:34;Stop          ;03.12.2018;FEY;;LION;49;14500;7200;224;5;96;99;8400;;4128;4128;1;13000;25.44;24.94;26,7;BCS1388054;4;18
009666;08.04.2021;10:36:07;Normalcharge  ;03.12.2018;FEY;;LION;49;14500;7200;224;5;96;99;8400;;4128;4127;1;13017;25.54;25.14;28,5;BCS1388054;4;18
009666;08.04.2021;10:37:03;Stop          ;03.12.2018;FEY;;LION;49;14500;7200;224;5;96;99;8400;;4128;4128;1;12995;25.54;25.34;29,0;BCS1388054;4;18
009666;18.04.2021;08:34:04;Normalcharge  ;03.12.2018;FEY;;LION;49;14500;7200;192;5;96;98;8400;;4125;4124;1;13018;26.34;25.84;27,9;BCS1388054;4;18
009666;18.04.2021;08:34:10;Stop          ;03.12.2018;FEY;;LION;49;14500;7200;192;5;96;98;8400;;4125;4124;1;13017;26.34;25.84;28,1;BCS1388054;4;18
009666;04.08.2021;07:24:46;Normalcharge  ;03.12.2018;FEY;;LION;49;14500;7200;192;5;94;96;8400;;4093;4092;1;13013;30.44;29.94;31,5;BCS1388054;4;18
009666;04.08.2021;07:25:30;Stop          ;03.12.2018;FEY;;LION;49;14500;7200;192;5;94;96;8400;;4093;4092;1;12990;30.44;30.14;31,7;BCS1388054;4;18
009666;22.08.2021;11:08:08;Normalcharge  ;03.12.2018;FEY;;LION;49;14500;7200;192;5;70;71;8400;3000;3864;3864;1;13006;23.54;29.24;32,1;BCS1388054;5;11
009666;22.08.2021;11:08:41;Stop          ;03.12.2018;FEY;;LION;49;14500;7200;128;5;70;71;8400;3000;3876;3871;1;12857;23.64;30.24;32,5;BCS1388054;5;11
009666;12.10.2021;12:40:28;Normalcharge  ;03.12.2018;FEY;;LION;49;14500;7200;192;5;70;71;8400;3000;3854;3854;1;13015;24.14;27.94;28,8;BCS1388054;7;10
009666;12.10.2021;12:40:39;Stop          ;03.12.2018;FEY;;LION;49;14500;7200;192;5;70;71;8400;3000;3854;3854;1;13010;24.14;28.14;28,9;BCS1388054;7;10
009666;12.10.2021;12:43:08;Normalcharge  ;03.12.2018;FEY;;LION;49;14500;7200;192;5;70;71;8400;3000;3854;3854;1;13022;24.34;28.04;29,2;BCS1388054;7;10
009666;12.10.2021;12:43:28;Stop          ;03.12.2018;FEY;;LION;49;14500;7200;192;5;70;71;8400;3000;3854;3854;1;13016;24.34;28.74;29,2;BCS1388054;7;10
009666;14.10.2021;12:40:08;Normalcharge  ;03.12.2018;FEY;;LION;49;14500;7200;192;5;70;71;8400;3000;3854;3854;1;13014;24.04;25.54;27,9;BCS1388054;4;18
009666;14.10.2021;12:41:44;Stop          ;03.12.2018;FEY;;LION;49;14500;7200;128;5;70;72;8400;3000;3948;3902;1;12661;24.24;29.24;28,4;BCS1388054;4;18