File: reader/Batterieverzeichnis_new/009615.txt
Serialnumber ; Date ; Time ; Action ; Date of Manufacture ; Manufacturer ; Battery Name ; Device-Chemistry ; Specification-Info ; Design-Capacity [mAh] ; Design-Voltage [mV] ; Battery Status ; Cycle Count ; SOC [%] ; Relativ SOC[%] ; Desired Voltage [mV]; Desired Current [mA]; Cell Voltage 1 [mV] ; Cell Voltage 2 [mV] ; Max_Error [%] ; Busvoltage[mV] ; Battery Temperature [°C] ; Charger Temperature [°C] ; Batterysystem ; Case ; PLace
009615;07.12.2020;04:14:40;Cycle         ;04.12.2018;FEY;;LION;49;14500;7200;192;2;89;91;8400;3000;4056;4054;1;13019;25.54;27.54;30,3;BCS1388054;7;17
009615;08.12.2020;16:20:20;Stop          ;04.12.2018;FEY;;LION;49;14500;7200;224;3;97;100;8400;;4153;4153;1;13018;27.34;28.94;31,9;BCS1388054;7;17
009615;21.02.2021;13:43:19;Normalcharge  ;04.12.2018;FEY;;LION;49;14500;7200;192;3;90;93;8400;3000;4072;4072;1;12991;23.54;25.54;27,5;BCS1388054;1;9
009615;22.02.2021;17:08:49;Stop          ;04.12.2018;FEY;;LION;49;14500;7200;224;3;97;100;8400;;4146;4147;1;12990;26.14;27.34;30,0;BCS1388054;1;9
009615;06.04.2021;08:39:10;Normalcharge  ;04.12.2018;FEY;;LION;49;14500;7200;224;3;95;99;8400;;4128;4128;1;13012;21.74;25.24;28,1;BCS1388054;5;11
009615;06.04.2021;08:39:58;Stop          ;04.12.2018;FEY;;LION;49;14500;7200;224;3;95;99;8400;;4128;4128;1;13010;21.74;25.24;28,4;BCS1388054;5;11
009615;08.04.2021;07:58:30;Normalcharge  ;04.12.2018;FEY;;LION;49;14500;7200;224;3;95;99;8400;;4128;4128;1;13012;25.14;25.54;26,4;BCS1388054;5;11
009615;08.04.2021;07:59:28;Stop          ;04.12.2018;FEY;;LION;49;14500;7200;224;3;95;99;8400;;4128;4128;1;13012;25.14;25.74;26,7;BCS1388054;5;11
009615;08.04.2021;10:36:12;Normalcharge  ;04.12.2018;FEY;;LION;49;14500;7200;224;3;95;99;8400;;4128;4128;1;13009;25.34;26.14;28,6;BCS1388054;5;11
009615;08.04.2021;10:37:06;Stop          ;04.12.2018;FEY;;LION;49;14500;7200;224;3;95;99;8400;;4127;4127;1;13010;25.34;26.34;29,0;BCS1388054;5;11
009615;18.04.2021;08:34:16;Normalcharge  ;04.12.2018;FEY;;LION;49;14500;7200;224;3;95;99;8400;;4124;4124;1;13005;26.04;26.74;28,1;BCS1388054;5;11
009615;18.04.2021;08:34:27;Stop          ;04.12.2018;FEY;;LION;49;14500;7200;224;3;95;99;8400;;4124;4124;1;13006;26.04;26.84;28,2;BCS1388054;5;11
009615;04.08.2021;07:24:41;Normalcharge  ;04.12.2018;FEY;;LION;49;14500;7200;192;3;93;96;8400;;4093;4093;1;13006;30.14;30.84;31,5;BCS1388054;5;11
009615;04.08.2021;07:25:23;Stop          ;04.12.2018;FEY;;LION;49;14500;7200;192;3;93;96;8400;;4093;4093;1;13005;30.14;31.04;31,6;BCS1388054;5;11
009615;22.08.2021;11:37:17;Normalcharge  ;04.12.2018;FEY;;LION;49;14500;7200;192;3;92;95;8400;3000;4088;4088;1;12996;22.24;29.14;31,9;BCS1388054;6;8
009615;22.08.2021;11:37:57;Stop          ;04.12.2018;FEY;;LION;49;14500;7200;128;3;92;95;8400;3000;4118;4107;1;12858;22.34;30.34;32,0;BCS1388054;6;8
009615;14.10.2021;12:39:52;Normalcharge  ;04.12.2018;FEY;;LION;49;14500;7200;192;3;84;88;8400;3000;4008;4009;1;13007;25.14;25.24;27,9;BCS1388054;1;13
009615;14.10.2021;12:41:15;Stop          ;04.12.2018;FEY;;LION;49;14500;7200;128;3;84;88;8400;3000;4094;4053;1;12477;25.24;28.64;28,2;BCS1388054;1;13
009615;28.12.2021;09:01:29;Normalcharge  ;04.12.2018;FEY;;LION;49;14500;7200;192;3;78;81;8400;3000;3933;3934;1;13018;23.64;24.84;25,4;BCS1388054;4;16
009615;28.12.2021;09:02:38;Stop          ;04.12.2018;FEY;;LION;49;14500;7200;128;3;78;82;8400;3000;4031;3983;1;12585;23.64;27.44;25,8;BCS1388054;4;16
009615;07.02.2022;08:50:47;Normalcharge  ;04.12.2018;FEY;;LION;49;14500;7200;192;3;78;82;8400;3000;3925;3925;1;13006;22.24;21.34;25,0;BCS1388054;6;5
009615;13.02.2022;10:58:25;Normalcharge  ;04.12.2018;FEY;;LION;49;14500;7200;224;3;97;100;8400;;4142;4141;1;13011;22.64;23.34;26,1;BCS1388054;3;13
009615;13.02.2022;17:19:51;Stop           ;04.12.2018;FEY;;LION;49;14500;7200;224;3;97;100;8400;;4142;4141;1;13003;25.04;27.44;29,0;BCS1388054;3;13