File: reader/Batterieverzeichnis_new/009646.txt
Serialnumber ; Date ; Time ; Action ; Date of Manufacture ; Manufacturer ; Battery Name ; Device-Chemistry ; Specification-Info ; Design-Capacity [mAh] ; Design-Voltage [mV] ; Battery Status ; Cycle Count ; SOC [%] ; Relativ SOC[%] ; Desired Voltage [mV]; Desired Current [mA]; Cell Voltage 1 [mV] ; Cell Voltage 2 [mV] ; Max_Error [%] ; Busvoltage[mV] ; Battery Temperature [°C] ; Charger Temperature [°C] ; Batterysystem ; Case ; PLace
009646;07.12.2020;04:14:36;Cycle         ;03.12.2018;FEY;;LION;49;14500;7200;192;1;97;98;8400;;4127;4130;1;12993;25.34;28.14;30,3;BCS1388054;6;8
009646;08.12.2020;16:20:13;Stop          ;03.12.2018;FEY;;LION;49;14500;7200;192;1;97;98;8400;;4126;4128;1;12996;27.54;29.84;31,9;BCS1388054;6;8
009646;12.01.2021;04:17:33;Charge to 90% ;03.12.2018;FEY;;LION;49;14500;7200;192;1;96;97;8400;;4114;4116;1;13008;22.74;23.44;23,6;BCS1388054;4;6
009646;12.01.2021;04:57:16;Stop          ;03.12.2018;FEY;;LION;49;14500;7200;192;1;89;90;8400;3000;4054;4056;1;13002;27.14;28.44;31,6;BCS1388054;4;6
009646;12.01.2021;05:21:49;Cycle         ;03.12.2018;FEY;;LION;49;14500;7200;192;1;89;90;8400;3000;4057;4059;1;13003;26.94;26.94;30,4;BCS1388054;4;6
009646;13.01.2021;08:19:19;Stop          ;03.12.2018;FEY;;LION;49;14500;7200;224;2;97;100;8400;;4156;4157;1;13003;26.54;27.14;30,7;BCS1388054;4;6
009646;03.03.2021;08:17:46;Normalcharge  ;03.12.2018;FEY;;LION;49;14500;7200;2768;3;;;8400;3000;3059;3055;1;13025;22.74;23.94;23,6;BCS1388054;7;12
009646;03.03.2021;10:54:05;Stop          ;03.12.2018;FEY;;LION;49;14500;7200;128;3;32;33;8400;3000;3675;3625;1;12685;28.74;30.34;31,4;BCS1388054;7;12
009646;03.03.2021;10:55:49;Normalcharge  ;03.12.2018;FEY;;LION;49;14500;7200;192;3;32;33;8400;3000;3591;3591;1;13017;28.74;29.04;30,6;BCS1388054;7;12
009646;03.03.2021;17:03:24;Stop          ;03.12.2018;FEY;;LION;49;14500;7200;224;3;97;100;8400;;4164;4165;1;13017;25.84;26.94;31,4;BCS1388054;7;12
009646;04.04.2021;11:50:10;Normalcharge  ;03.12.2018;FEY;;LION;49;14500;7200;192;3;55;56;8400;3000;3712;3712;1;13011;24.44;26.24;27,8;BCS1388054;5;16
009646;04.04.2021;11:51:30;Stop          ;03.12.2018;FEY;;LION;49;14500;7200;128;3;55;57;8400;3000;3801;3754;1;12662;24.54;28.94;28,5;BCS1388054;5;16
009646;05.04.2021;09:37:37;Charge to 60% ;03.12.2018;FEY;;LION;49;14500;7200;192;3;55;57;8400;3000;3715;3715;1;12993;24.64;26.14;26,0;BCS1388054;1;9
009646;05.04.2021;10:01:53;Stop          ;03.12.2018;FEY;;LION;49;14500;7200;192;3;58;60;8400;3000;3772;3771;1;12990;26.04;28.64;31,2;BCS1388054;1;9
009646;22.08.2021;11:08:18;Normalcharge  ;03.12.2018;FEY;;LION;49;14500;7200;192;3;54;56;8400;3000;3705;3705;1;13025;29.34;31.24;32,2;BCS1388054;7;8
009646;22.08.2021;11:08:51;Stop          ;03.12.2018;FEY;;LION;49;14500;7200;128;3;54;56;8400;3000;3737;3716;1;12838;29.34;32.44;32,6;BCS1388054;7;8
009646;25.08.2021;08:15:19;Charge to 60% ;03.12.2018;FEY;;LION;49;14500;7200;192;3;54;56;8400;3000;3704;3704;1;13004;29.84;32.04;33,5;BCS1388054;2;9
009646;25.08.2021;10:43:16;Stop          ;03.12.2018;FEY;;LION;49;14500;7200;192;3;58;60;8400;3000;3760;3759;1;13003;32.54;34.44;36,4;BCS1388054;2;9