File: reader/Batterieverzeichnis_new/009692.txt
Serialnumber ; Date ; Time ; Action ; Date of Manufacture ; Manufacturer ; Battery Name ; Device-Chemistry ; Specification-Info ; Design-Capacity [mAh] ; Design-Voltage [mV] ; Battery Status ; Cycle Count ; SOC [%] ; Relativ SOC[%] ; Desired Voltage [mV]; Desired Current [mA]; Cell Voltage 1 [mV] ; Cell Voltage 2 [mV] ; Max_Error [%] ; Busvoltage[mV] ; Battery Temperature [°C] ; Charger Temperature [°C] ; Batterysystem ; Case ; PLace
009692;10.12.2019;15:29:01;Charge to 30% ;04.12.2018;FEY;;LION;49;14500;7200;224;49;93;100;8400;;4130;4128;1;12997;22.64;24.14;27,1;BCS1388054;5;13
009692;10.12.2019;20:48:54;Stop          ;04.12.2018;FEY;;LION;49;14500;7200;192;50;29;30;8400;3000;3560;3559;1;12996;33.94;35.04;33,1;BCS1388054;5;13
009692;11.12.2019;08:48:53;Fastcharge    ;04.12.2018;FEY;;LION;49;14500;7200;192;50;29;30;8400;3000;3568;3567;1;12995;26.74;28.14;31,9;BCS1388054;5;13
009692;11.12.2019;13:40:11;Stop          ;04.12.2018;FEY;;LION;49;14500;7200;224;50;94;100;8400;;4162;4161;1;12995;30.64;31.64;32,4;BCS1388054;5;13
009692;11.12.2019;15:46:40;Charge to 10% ;04.12.2018;FEY;;LION;49;14500;7200;224;50;96;100;8400;;4153;4152;1;12995;27.54;28.64;31,4;BCS1388054;5;13
009692;11.12.2019;22:49:07;Stop          ;04.12.2018;FEY;;LION;49;14500;7200;192;51;10;10;8400;3000;3358;3356;1;12995;34.74;35.44;33,5;BCS1388054;5;13
009692;12.12.2019;08:45:10;Normalcharge  ;04.12.2018;FEY;;LION;49;14500;7200;192;51;9;10;8400;3000;3367;3365;1;12994;26.84;28.34;31,7;BCS1388054;5;13
009692;12.12.2019;16:41:20;Stop          ;04.12.2018;FEY;;LION;49;14500;7200;224;51;96;100;8400;;4161;4161;1;12995;29.74;30.64;31,6;BCS1388054;5;13
009692;13.12.2019;10:48:05;Charge to 10% ;04.12.2018;FEY;;LION;49;14500;7200;224;51;96;100;8400;;4149;4149;1;12995;26.94;28.34;32,0;BCS1388054;5;13
009692;13.12.2019;15:40:55;Stop          ;04.12.2018;FEY;;LION;49;14500;7200;192;52;35;37;8400;3000;3502;3553;1;13498;33.44;41.94;34,6;BCS1388054;5;13
009692;16.12.2019;07:43:34;Charge to 10% ;04.12.2018;FEY;;LION;49;14500;7200;192;52;36;37;8400;3000;3596;3595;1;13031;22.64;26.74;31,7;BCS1388054;7;2
009692;16.12.2019;11:52:34;Stop          ;04.12.2018;FEY;;LION;49;14500;7200;192;52;10;10;8400;3000;3360;3359;1;13029;30.84;32.24;34,7;BCS1388054;7;2
009692;16.12.2019;14:44:25;Charge to 90% ;04.12.2018;FEY;;LION;49;14500;7200;192;52;10;10;8400;3000;3362;3361;1;13030;28.64;29.64;31,7;BCS1388054;7;2
009692;16.12.2019;20:53:58;Stop          ;04.12.2018;FEY;;LION;49;14500;7200;192;52;86;90;8400;3000;4061;4061;1;13031;30.84;31.14;32,1;BCS1388054;7;2
009692;17.12.2019;08:38:01;Fastcharge    ;04.12.2018;FEY;;LION;49;14500;7200;192;52;86;90;8400;3000;4046;4046;1;13030;25.94;28.04;31,6;BCS1388054;7;2
009692;17.12.2019;10:36:25;Stop          ;04.12.2018;FEY;;LION;49;14500;7200;224;52;97;100;8400;;4159;4158;1;13030;27.44;28.84;31,5;BCS1388054;7;2
009692;17.12.2019;13:38:44;Charge to 10% ;04.12.2018;FEY;;LION;49;14500;7200;224;52;97;100;8400;;4150;4149;1;13031;26.34;28.04;30,8;BCS1388054;7;2
009692;17.12.2019;20:42:03;Stop          ;04.12.2018;FEY;;LION;49;14500;7200;192;53;10;10;8400;3000;3353;3352;1;13030;32.64;31.84;32,6;BCS1388054;7;2
009692;18.12.2019;08:31:43;Fastcharge    ;04.12.2018;FEY;;LION;49;14500;7200;192;53;8;8;8400;3000;3363;3362;1;13032;26.14;28.14;31,6;BCS1388054;7;2
009692;18.12.2019;14:30:48;Stop          ;04.12.2018;FEY;;LION;49;14500;7200;224;53;94;100;8400;;4160;4158;1;13031;29.04;29.64;31,6;BCS1388054;7;2
009692;19.12.2019;08:24:17;Charge to 60% ;04.12.2018;FEY;;LION;49;14500;7200;224;53;95;100;8400;;4147;4145;1;13031;26.04;28.04;31,6;BCS1388054;7;2
009692;19.12.2019;11:28:26;Stop          ;04.12.2018;FEY;;LION;49;14500;7200;192;54;57;60;8400;3000;3764;3761;1;13029;32.74;34.04;35,1;BCS1388054;7;2
009692;19.12.2019;12:16:57;Cycle         ;04.12.2018;FEY;;LION;49;14500;7200;192;54;57;60;8400;3000;3777;3775;1;13030;29.44;29.84;32,7;BCS1388054;7;2
009692;20.12.2019;17:22:28;Stop          ;04.12.2018;FEY;;LION;49;14500;7200;224;55;93;99;8400;;4151;4150;1;13031;26.24;28.24;31,9;BCS1388054;7;2
009692;06.01.2020;06:35:02;Charge to 60% ;04.12.2018;FEY;;LION;49;14500;7200;224;55;92;99;8400;;4123;4122;1;13031;26.14;28.04;31,9;BCS1388054;7;2
009692;06.01.2020;09:29:52;Stop          ;04.12.2018;FEY;;LION;49;14500;7200;192;55;56;60;8400;3000;3765;3763;1;13030;31.94;33.04;34,0;BCS1388054;7;2
009692;06.01.2020;09:50:50;Fastcharge    ;04.12.2018;FEY;;LION;49;14500;7200;192;55;56;60;8400;3000;3775;3774;1;13031;30.44;30.24;32,7;BCS1388054;7;2
009692;06.01.2020;13:05:11;Stop          ;04.12.2018;FEY;;LION;49;14500;7200;224;55;94;100;8400;;4161;4160;1;13031;28.64;29.84;32,4;BCS1388054;7;2