File: reader/Batterieverzeichnis_new/009602.txt
Serialnumber ; Date ; Time ; Action ; Date of Manufacture ; Manufacturer ; Battery Name ; Device-Chemistry ; Specification-Info ; Design-Capacity [mAh] ; Design-Voltage [mV] ; Battery Status ; Cycle Count ; SOC [%] ; Relativ SOC[%] ; Desired Voltage [mV]; Desired Current [mA]; Cell Voltage 1 [mV] ; Cell Voltage 2 [mV] ; Max_Error [%] ; Busvoltage[mV] ; Battery Temperature [°C] ; Charger Temperature [°C] ; Batterysystem ; Case ; PLace
009602;12.01.2021;04:17:22;Charge to 90% ;04.12.2018;FEY;;LION;49;14500;7200;16576;4;97;98;;;4135;4132;1;13006;23.34;24.04;23,5;BCS1388054;2;17
009602;12.01.2021;04:54:21;Stop          ;04.12.2018;FEY;;LION;49;14500;7200;192;4;90;90;8400;3000;4051;4050;1;12999;27.14;32.24;31,9;BCS1388054;2;17
009602;12.01.2021;05:21:40;Cycle         ;04.12.2018;FEY;;LION;49;14500;7200;192;4;90;90;8400;3000;4062;4061;1;13001;27.44;28.74;30,6;BCS1388054;2;17
009602;13.01.2021;08:20:19;Stop          ;04.12.2018;FEY;;LION;49;14500;7200;224;5;97;100;8400;;4155;4155;1;13000;27.14;28.54;30,8;BCS1388054;2;17
009602;21.02.2021;13:43:49;Normalcharge  ;04.12.2018;FEY;;LION;49;14500;7200;224;5;96;99;8400;;4131;4131;1;13006;23.14;23.54;27,7;BCS1388054;3;12
009602;21.02.2021;20:44:52;Stop           ;04.12.2018;FEY;;LION;49;14500;7200;224;5;96;99;8400;;4132;4132;1;13002;26.64;27.04;31,2;BCS1388054;3;12
009602;06.04.2021;08:39:16;Normalcharge  ;04.12.2018;FEY;;LION;49;14500;7200;192;5;95;98;8400;;4116;4116;1;13011;21.44;25.84;28,1;BCS1388054;6;3
009602;06.04.2021;08:40:03;Stop          ;04.12.2018;FEY;;LION;49;14500;7200;192;5;95;98;8400;;4116;4116;1;12991;21.54;26.14;28,5;BCS1388054;6;3
009602;08.04.2021;07:58:44;Normalcharge  ;04.12.2018;FEY;;LION;49;14500;7200;192;5;95;98;8400;;4116;4116;1;13014;25.34;22.64;26,4;BCS1388054;6;3
009602;08.04.2021;07:59:23;Stop          ;04.12.2018;FEY;;LION;49;14500;7200;192;5;95;98;8400;;4116;4116;1;13014;25.34;25.74;26,7;BCS1388054;6;3
009602;08.04.2021;10:36:16;Normalcharge  ;04.12.2018;FEY;;LION;49;14500;7200;192;5;95;98;8400;;4116;4116;1;13013;25.64;26.54;28,6;BCS1388054;6;3
009602;08.04.2021;10:37:11;Stop          ;04.12.2018;FEY;;LION;49;14500;7200;192;5;95;98;8400;;4116;4116;1;12991;25.64;27.04;29,2;BCS1388054;6;3
009602;18.04.2021;08:34:33;Normalcharge  ;04.12.2018;FEY;;LION;49;14500;7200;192;5;95;97;8400;;4113;4113;1;13011;26.24;27.44;28,2;BCS1388054;6;3
009602;18.04.2021;08:34:41;Stop          ;04.12.2018;FEY;;LION;49;14500;7200;192;5;95;97;8400;;4113;4113;1;13010;26.24;27.54;28,2;BCS1388054;6;3
009602;04.08.2021;07:24:35;Normalcharge  ;04.12.2018;FEY;;LION;49;14500;7200;192;5;93;96;8400;;4086;4086;1;13007;30.34;30.64;31,5;BCS1388054;6;3
009602;04.08.2021;07:25:17;Stop          ;04.12.2018;FEY;;LION;49;14500;7200;192;5;93;96;8400;;4086;4086;1;12991;30.34;31.24;31,6;BCS1388054;6;3
009602;22.08.2021;11:37:17;Normalcharge  ;04.12.2018;FEY;;LION;49;14500;7200;192;5;87;89;8400;3000;4030;4031;1;13009;22.14;29.44;31,9;BCS1388054;6;17
009602;22.08.2021;11:37:57;Stop          ;04.12.2018;FEY;;LION;49;14500;7200;128;5;87;89;8400;3000;4059;4047;1;12850;22.24;31.04;32,0;BCS1388054;6;17
009602;14.10.2021;12:40:18;Normalcharge  ;04.12.2018;FEY;;LION;49;14500;7200;192;5;83;85;8400;3000;3975;3976;1;12997;23.84;25.54;28,1;BCS1388054;6;5
009602;14.10.2021;12:41:58;Stop          ;04.12.2018;FEY;;LION;49;14500;7200;128;5;83;85;8400;3000;4079;4032;1;12636;24.04;28.64;28,5;BCS1388054;6;5
009602;28.12.2021;09:01:25;Normalcharge  ;04.12.2018;FEY;;LION;49;14500;7200;192;5;69;71;8400;3000;3847;3848;1;13001;23.74;23.64;25,3;BCS1388054;3;6
009602;28.12.2021;09:02:24;Stop           ;04.12.2018;FEY;;LION;49;14500;7200;128;5;69;71;8400;3000;3940;3893;1;12557;23.74;25.54;25,8;BCS1388054;3;6
009602;07.02.2022;08:50:37;Normalcharge  ;04.12.2018;FEY;;LION;49;14500;7200;192;5;69;71;8400;3000;3839;3841;1;13029;22.44;21.44;25,0;BCS1388054;7;3
009602;07.02.2022;14:21:07;Stop          ;04.12.2018;FEY;;LION;49;14500;7200;224;5;98;100;8400;;4148;4149;1;13021;25.34;25.94;28,9;BCS1388054;7;3
009602;14.03.2022;10:33:51;Normalcharge  ;04.12.2018;FEY;;LION;49;14500;7200;192;6;60;63;8400;3000;3781;3787;1;13018;24.34;24.94;25,3;BCS1388054;5;9
009602;14.03.2022;10:38:12;Stop          ;04.12.2018;FEY;;LION;49;14500;7200;128;6;61;64;8400;3000;3897;3853;1;12711;24.54;30.14;28,1;BCS1388054;5;9