File: reader/Batterieverzeichnis_new/009690.txt
Serialnumber ; Date ; Time ; Action ; Date of Manufacture ; Manufacturer ; Battery Name ; Device-Chemistry ; Specification-Info ; Design-Capacity [mAh] ; Design-Voltage [mV] ; Battery Status ; Cycle Count ; SOC [%] ; Relativ SOC[%] ; Desired Voltage [mV]; Desired Current [mA]; Cell Voltage 1 [mV] ; Cell Voltage 2 [mV] ; Max_Error [%] ; Busvoltage[mV] ; Battery Temperature [°C] ; Charger Temperature [°C] ; Batterysystem ; Case ; PLace
009690;07.12.2020;04:14:25;Cycle          ;03.12.2018;FEY;;LION;49;14500;7200;192;1;98;98;8400;;4136;4137;1;13000;25.04;27.54;30,3;BCS1388054;3;7
009690;08.12.2020;16:19:50;Stop           ;03.12.2018;FEY;;LION;49;14500;7200;192;1;98;98;8400;;4134;4134;1;13000;27.34;29.24;31,9;BCS1388054;3;7
009690;12.01.2021;04:17:40;Charge to 90% ;03.12.2018;FEY;;LION;49;14500;7200;192;1;97;97;8400;;4121;4121;1;13006;22.44;23.84;23,6;BCS1388054;6;14
009690;12.01.2021;05:00:55;Stop          ;03.12.2018;FEY;;LION;49;14500;7200;192;2;90;90;8400;3000;4050;4050;1;13000;26.14;30.54;31,2;BCS1388054;6;14
009690;12.01.2021;05:21:57;Cycle         ;03.12.2018;FEY;;LION;49;14500;7200;192;2;90;90;8400;3000;4053;4053;1;13000;26.24;29.24;30,4;BCS1388054;6;14
009690;13.01.2021;08:31:18;Stop          ;03.12.2018;FEY;;LION;49;14500;7200;224;3;97;100;8400;;4156;4155;1;13000;26.44;29.14;31,1;BCS1388054;6;14
009690;21.02.2021;13:45:29;Normalcharge  ;03.12.2018;FEY;;LION;49;14500;7200;192;3;95;98;8400;;4117;4116;1;13003;22.34;23.54;27,8;BCS1388054;6;8
009690;06.04.2021;08:39:21;Normalcharge  ;03.12.2018;FEY;;LION;49;14500;7200;192;3;95;97;8400;;4104;4103;1;13032;20.64;24.74;28,1;BCS1388054;7;4
009690;06.04.2021;08:40:08;Stop          ;03.12.2018;FEY;;LION;49;14500;7200;192;3;95;97;8400;;4104;4103;1;12949;20.74;25.14;28,5;BCS1388054;7;4
009690;08.04.2021;07:59:03;Normalcharge  ;03.12.2018;FEY;;LION;49;14500;7200;192;3;95;97;8400;;4103;4103;1;13032;24.54;24.74;26,4;BCS1388054;7;4
009690;08.04.2021;07:59:16;Stop          ;03.12.2018;FEY;;LION;49;14500;7200;192;3;95;97;8400;;4103;4103;1;13027;24.54;24.84;26,6;BCS1388054;7;4
009690;08.04.2021;10:36:43;Normalcharge  ;03.12.2018;FEY;;LION;49;14500;7200;192;3;95;97;8400;;4103;4103;1;13030;24.74;25.94;28,9;BCS1388054;7;4
009690;08.04.2021;10:37:15;Stop          ;03.12.2018;FEY;;LION;49;14500;7200;192;3;95;97;8400;;4103;4103;1;12968;24.74;26.14;29,2;BCS1388054;7;4
009690;18.04.2021;08:34:46;Normalcharge  ;03.12.2018;FEY;;LION;49;14500;7200;192;3;95;97;8400;;4101;4100;1;13030;25.44;26.64;28,2;BCS1388054;7;4
009690;18.04.2021;08:34:54;Stop          ;03.12.2018;FEY;;LION;49;14500;7200;192;3;95;97;8400;;4101;4100;1;13026;25.44;26.64;28,4;BCS1388054;7;4
009690;04.08.2021;07:24:29;Normalcharge  ;03.12.2018;FEY;;LION;49;14500;7200;192;3;95;97;8400;;4074;4073;1;13027;29.34;29.94;31,5;BCS1388054;7;4
009690;04.08.2021;07:25:08;Stop          ;03.12.2018;FEY;;LION;49;14500;7200;192;3;95;97;8400;;4074;4073;1;12973;29.34;30.34;31,6;BCS1388054;7;4
009690;14.10.2021;12:39:52;Normalcharge  ;03.12.2018;FEY;;LION;49;14500;7200;192;3;68;70;8400;3000;3846;3846;1;12997;23.94;26.34;27,9;BCS1388054;1;18
009690;14.10.2021;12:41:15;Stop          ;03.12.2018;FEY;;LION;49;14500;7200;128;3;68;70;8400;3000;3939;3889;1;12445;24.14;29.74;28,2;BCS1388054;1;18
009690;07.02.2022;08:51:51;Normalcharge  ;03.12.2018;FEY;;LION;49;14500;7200;192;3;68;70;8400;3000;3820;3820;1;12994;21.74;23.34;25,6;BCS1388054;1;9
009690;07.02.2022;13:16:30;Stop          ;03.12.2018;FEY;;LION;49;14500;7200;224;3;98;100;8400;;4154;4154;1;12990;24.94;27.14;31,2;BCS1388054;1;9
009690;14.03.2022;12:14:26;Normalcharge  ;03.12.2018;FEY;;LION;49;14500;7200;224;3;96;99;8400;;4130;4130;1;13007;23.34;24.94;27,5;BCS1388054;5;12
009690;14.03.2022;12:18:30;Stop          ;03.12.2018;FEY;;LION;49;14500;7200;224;3;96;99;8400;;4130;4130;1;13004;23.54;25.44;29,5;BCS1388054;5;12