File: reader/Batterieverzeichnis_new/009685.txt
Serialnumber ; Date ; Time ; Action ; Date of Manufacture ; Manufacturer ; Battery Name ; Device-Chemistry ; Specification-Info ; Design-Capacity [mAh] ; Design-Voltage [mV] ; Battery Status ; Cycle Count ; SOC [%] ; Relativ SOC[%] ; Desired Voltage [mV]; Desired Current [mA]; Cell Voltage 1 [mV] ; Cell Voltage 2 [mV] ; Max_Error [%] ; Busvoltage[mV] ; Battery Temperature [°C] ; Charger Temperature [°C] ; Batterysystem ; Case ; PLace
009685;07.12.2020;04:14:28;Cycle         ;04.12.2018;FEY;;LION;49;14500;7200;192;2;97;98;8400;;4149;4150;1;13013;25.74;27.34;30,3;BCS1388054;4;4
009685;08.12.2020;16:19:56;Stop          ;04.12.2018;FEY;;LION;49;14500;7200;192;2;97;98;8400;;4146;4147;1;13013;27.74;28.64;31,9;BCS1388054;4;4
009685;12.01.2021;04:17:40;Charge to 90% ;04.12.2018;FEY;;LION;49;14500;7200;192;2;96;97;8400;;4132;4132;1;13008;23.04;23.94;23,6;BCS1388054;6;9
009685;12.01.2021;05:00:55;Stop          ;04.12.2018;FEY;;LION;49;14500;7200;192;2;90;90;8400;3000;4062;4062;1;13003;26.94;29.34;31,2;BCS1388054;6;9
009685;12.01.2021;05:21:57;Cycle         ;04.12.2018;FEY;;LION;49;14500;7200;192;2;90;90;8400;3000;4065;4066;1;13003;27.04;28.34;30,4;BCS1388054;6;9
009685;13.01.2021;08:31:18;Stop          ;04.12.2018;FEY;;LION;49;14500;7200;224;3;97;100;8400;;4156;4157;1;13004;27.04;28.24;31,1;BCS1388054;6;9
009685;21.02.2021;13:45:29;Normalcharge  ;04.12.2018;FEY;;LION;49;14500;7200;224;3;96;99;8400;;4132;4133;1;13013;23.14;22.54;27,8;BCS1388054;6;4
009685;22.02.2021;17:20:47;Stop          ;04.12.2018;FEY;;LION;49;14500;7200;224;3;96;99;8400;;4131;4132;1;13006;26.34;26.14;30,7;BCS1388054;6;4
009685;06.04.2021;08:38:50;Normalcharge  ;04.12.2018;FEY;;LION;49;14500;7200;192;3;95;98;8400;;4117;4118;1;13013;20.54;24.84;28,1;BCS1388054;3;15
009685;06.04.2021;08:39:42;Stop           ;04.12.2018;FEY;;LION;49;14500;7200;192;3;95;98;8400;;4117;4118;1;13011;20.64;25.14;28,2;BCS1388054;3;15
009685;08.04.2021;07:58:01;Normalcharge  ;04.12.2018;FEY;;LION;49;14500;7200;192;3;94;98;8400;;4117;4117;1;13018;25.24;25.14;26,4;BCS1388054;3;15
009685;08.04.2021;07:59:40;Stop           ;04.12.2018;FEY;;LION;49;14500;7200;192;3;94;98;8400;;4117;4117;1;13016;25.24;25.94;26,8;BCS1388054;3;15
009685;08.04.2021;10:35:05;Normalcharge  ;04.12.2018;FEY;;LION;49;14500;7200;192;3;95;98;8400;;4117;4117;1;13018;25.54;25.44;28,1;BCS1388054;3;15
009685;08.04.2021;10:36:56;Stop           ;04.12.2018;FEY;;LION;49;14500;7200;192;3;95;98;8400;;4117;4117;1;13015;25.54;26.34;29,0;BCS1388054;3;15
009685;18.04.2021;08:33:50;Normalcharge  ;04.12.2018;FEY;;LION;49;14500;7200;192;3;94;97;8400;;4114;4114;1;13012;26.14;26.64;27,8;BCS1388054;3;15
009685;18.04.2021;08:33:58;Stop           ;04.12.2018;FEY;;LION;49;14500;7200;192;3;94;97;8400;;4114;4114;1;13011;26.14;26.64;27,9;BCS1388054;3;15
009685;04.08.2021;07:24:50;Normalcharge  ;04.12.2018;FEY;;LION;49;14500;7200;192;3;93;96;8400;;4086;4087;1;13011;30.44;30.74;31,6;BCS1388054;3;15
009685;04.08.2021;07:25:37;Stop           ;04.12.2018;FEY;;LION;49;14500;7200;192;3;93;96;8400;;4086;4087;1;13010;30.44;31.04;31,7;BCS1388054;3;15
009685;22.08.2021;11:08:05;Normalcharge  ;04.12.2018;FEY;;LION;49;14500;7200;192;3;89;92;8400;3000;4055;4056;1;12998;22.84;30.04;32,1;BCS1388054;4;12
009685;22.08.2021;11:08:38;Stop          ;04.12.2018;FEY;;LION;49;14500;7200;128;3;89;92;8400;3000;4093;4077;1;12664;23.04;30.84;32,5;BCS1388054;4;12
009685;14.10.2021;12:39:57;Normalcharge  ;04.12.2018;FEY;;LION;49;14500;7200;192;3;87;89;8400;3000;4028;4029;1;13002;25.64;26.44;27,9;BCS1388054;2;1
009685;14.10.2021;12:41:24;Stop          ;04.12.2018;FEY;;LION;49;14500;7200;128;3;87;89;8400;3000;4109;4075;1;12587;25.74;29.74;28,2;BCS1388054;2;1
009685;01.11.2021;09:52:10;Normalcharge  ;04.12.2018;FEY;;LION;49;14500;7200;192;3;85;88;8400;3000;4010;4011;1;12996;24.44;25.04;26,4;BCS1388054;3;6
009685;01.11.2021;09:53:26;Stop           ;04.12.2018;FEY;;LION;49;14500;7200;128;3;85;88;8400;3000;4100;4059;1;12598;24.44;27.54;27,1;BCS1388054;3;6
009685;01.11.2021;10:02:09;Normalcharge  ;04.12.2018;FEY;;LION;49;14500;7200;192;3;85;88;8400;3000;4013;4013;1;12992;24.84;26.44;29,5;BCS1388054;3;6
009685;01.11.2021;10:03:20;Stop           ;04.12.2018;FEY;;LION;49;14500;7200;128;3;85;88;8400;3000;4102;4061;1;12590;24.94;28.24;29,5;BCS1388054;3;6
009685;28.12.2021;09:01:25;Normalcharge  ;04.12.2018;FEY;;LION;49;14500;7200;192;4;81;84;8400;3000;3963;3963;1;13004;23.54;24.04;25,3;BCS1388054;3;12
009685;28.12.2021;09:02:24;Stop           ;04.12.2018;FEY;;LION;49;14500;7200;128;4;81;84;8400;3000;4059;4012;1;12549;23.54;25.64;25,8;BCS1388054;3;12