File: reader/Batterieverzeichnis_new/009650.txt
Serialnumber ; Date ; Time ; Action ; Date of Manufacture ; Manufacturer ; Battery Name ; Device-Chemistry ; Specification-Info ; Design-Capacity [mAh] ; Design-Voltage [mV] ; Battery Status ; Cycle Count ; SOC [%] ; Relativ SOC[%] ; Desired Voltage [mV]; Desired Current [mA]; Cell Voltage 1 [mV] ; Cell Voltage 2 [mV] ; Max_Error [%] ; Busvoltage[mV] ; Battery Temperature [°C] ; Charger Temperature [°C] ; Batterysystem ; Case ; PLace
009650;07.12.2020;04:14:32;Cycle         ;04.12.2018;FEY;;LION;49;14500;7200;16576;4;97;98;;;4142;4141;1;13007;25.54;27.04;30,3;BCS1388054;5;11
009650;08.12.2020;16:20:01;Stop          ;04.12.2018;FEY;;LION;49;14500;7200;16576;4;97;98;;;4139;4139;1;13005;27.54;28.54;31,7;BCS1388054;5;11
009650;12.01.2021;04:17:40;Charge to 90% ;04.12.2018;FEY;;LION;49;14500;7200;16576;4;96;97;;;4125;4125;1;12998;22.84;23.84;23,6;BCS1388054;6;18
009650;12.01.2021;05:00:55;Stop          ;04.12.2018;FEY;;LION;49;14500;7200;192;4;90;90;8400;3000;4062;4062;1;12992;27.14;29.44;31,2;BCS1388054;6;18
009650;12.01.2021;05:21:57;Cycle         ;04.12.2018;FEY;;LION;49;14500;7200;192;4;90;90;8400;3000;4065;4065;1;12994;26.84;28.34;30,4;BCS1388054;6;18
009650;13.01.2021;08:31:18;Stop          ;04.12.2018;FEY;;LION;49;14500;7200;224;5;98;100;8400;;4155;4155;1;12993;26.54;28.34;31,1;BCS1388054;6;18
009650;21.02.2021;13:43:32;Normalcharge  ;04.12.2018;FEY;;LION;49;14500;7200;224;5;96;99;8400;;4130;4130;1;12989;23.14;25.24;27,5;BCS1388054;2;15
009650;21.02.2021;19:27:00;Stop          ;04.12.2018;FEY;;LION;49;14500;7200;224;5;96;99;8400;;4130;4130;1;12990;26.84;28.54;31,1;BCS1388054;2;15
009650;04.04.2021;11:50:33;Normalcharge  ;04.12.2018;FEY;;LION;49;14500;7200;192;6;53;54;8400;3000;3688;3689;1;13005;24.84;26.64;27,9;BCS1388054;2;1
009650;04.04.2021;11:51:48;Stop          ;04.12.2018;FEY;;LION;49;14500;7200;128;6;53;54;8400;3000;3778;3729;1;12621;24.84;29.34;28,6;BCS1388054;2;1
009650;05.04.2021;09:37:46;Charge to 60% ;04.12.2018;FEY;;LION;49;14500;7200;192;6;53;54;8400;3000;3690;3691;1;13005;24.94;25.74;26,1;BCS1388054;2;14
009650;05.04.2021;10:03:48;Stop          ;04.12.2018;FEY;;LION;49;14500;7200;128;6;58;60;8400;3000;3766;3768;1;13001;27.14;33.54;31,4;BCS1388054;2;14
009650;22.08.2021;11:08:13;Normalcharge  ;04.12.2018;FEY;;LION;49;14500;7200;192;6;54;55;8400;3000;3699;3699;1;13002;29.54;29.74;32,2;BCS1388054;6;4
009650;22.08.2021;11:08:46;Stop          ;04.12.2018;FEY;;LION;49;14500;7200;128;6;54;55;8400;3000;3729;3713;1;12821;29.64;30.94;32,5;BCS1388054;6;4
009650;25.08.2021;08:15:08;Charge to 60% ;04.12.2018;FEY;;LION;49;14500;7200;192;6;54;55;8400;3000;3698;3699;1;13000;30.24;31.64;33,4;BCS1388054;4;13
009650;25.08.2021;12:59:17;Stop          ;04.12.2018;FEY;;LION;49;14500;7200;192;6;58;60;8400;3000;3748;3748;1;12999;32.54;34.24;36,6;BCS1388054;4;13
009650;01.11.2021;09:52:01;Normalcharge  ;04.12.2018;FEY;;LION;49;14500;7200;192;6;55;57;8400;3000;3716;3717;1;12994;25.64;25.64;26,3;BCS1388054;5;13
009650;01.11.2021;09:53:41;Stop          ;04.12.2018;FEY;;LION;49;14500;7200;128;6;56;57;8400;3000;3807;3761;1;12582;25.64;29.74;27,3;BCS1388054;5;13
009650;01.11.2021;10:02:19;Normalcharge  ;04.12.2018;FEY;;LION;49;14500;7200;192;6;56;57;8400;3000;3721;3722;1;12991;25.84;27.74;29,5;BCS1388054;5;13
009650;01.11.2021;10:03:11;Stop          ;04.12.2018;FEY;;LION;49;14500;7200;128;6;56;57;8400;3000;3806;3762;1;12579;25.84;29.84;29,3;BCS1388054;5;13
009650;01.11.2021;10:27:35;Normalcharge  ;04.12.2018;FEY;;LION;49;14500;7200;192;6;56;57;8400;3000;3722;3723;1;12993;26.04;26.44;27,8;BCS1388054;5;13
009650;01.11.2021;10:29:14;Stop          ;04.12.2018;FEY;;LION;49;14500;7200;128;6;56;58;8400;3000;3813;3769;1;12578;26.14;30.54;28,6;BCS1388054;5;13
009650;01.11.2021;10:32:33;Charge to 60% ;04.12.2018;FEY;;LION;49;14500;7200;192;6;56;58;8400;3000;3727;3728;1;12995;26.14;28.04;29,9;BCS1388054;5;13
009650;01.11.2021;11:11:47;Stop          ;04.12.2018;FEY;;LION;49;14500;7200;192;6;58;60;8400;3000;3754;3755;1;12995;27.74;29.84;32,5;BCS1388054;5;13
009650;09.02.2022;08:16:53;Normalcharge  ;04.12.2018;FEY;;LION;49;14500;7200;192;6;30;31;8400;3000;3545;3546;1;13011;22.14;22.44;23,1;BCS1388054;1;7
009650;09.02.2022;13:56:48;Stop          ;04.12.2018;FEY;;LION;49;14500;7200;128;6;97;99;8400;3000;4180;4162;1;12968;26.54;29.14;29,9;BCS1388054;1;7
009650;14.03.2022;12:14:36;Normalcharge  ;04.12.2018;FEY;;LION;49;14500;7200;192;6;94;97;8400;3000;4104;4103;1;13005;24.24;25.14;27,7;BCS1388054;3;12
009650;14.03.2022;12:18:51;Stop           ;04.12.2018;FEY;;LION;49;14500;7200;128;6;95;97;8400;3000;4173;4151;1;12963;24.34;26.94;29,5;BCS1388054;3;12
009650;29.03.2022;08:21:01;Normalcharge  ;04.12.2018;FEY;;LION;49;14500;7200;192;6;81;83;8400;3000;3953;3953;1;13010;24.64;25.84;25,8;BCS1388054;3;13
009650;29.03.2022;08:21:40;Stop           ;04.12.2018;FEY;;LION;49;14500;7200;128;6;81;83;8400;3000;4004;3977;1;12638;24.64;27.44;26,0;BCS1388054;3;13
009650;29.03.2022;08:22:08;Normalcharge  ;04.12.2018;FEY;;LION;49;14500;7200;128;6;81;83;8400;3000;3955;3957;1;13008;24.64;27.14;26,3;BCS1388054;3;13
009650;29.03.2022;08:22:36;Stop           ;04.12.2018;FEY;;LION;49;14500;7200;128;6;81;83;8400;3000;3973;3964;1;12706;24.64;27.74;26,4;BCS1388054;3;13