File: reader/Batterieverzeichnis_new/009660.txt
Serialnumber ; Date ; Time ; Action ; Date of Manufacture ; Manufacturer ; Battery Name ; Device-Chemistry ; Specification-Info ; Design-Capacity [mAh] ; Design-Voltage [mV] ; Battery Status ; Cycle Count ; SOC [%] ; Relativ SOC[%] ; Desired Voltage [mV]; Desired Current [mA]; Cell Voltage 1 [mV] ; Cell Voltage 2 [mV] ; Max_Error [%] ; Busvoltage[mV] ; Battery Temperature [°C] ; Charger Temperature [°C] ; Batterysystem ; Case ; PLace
009660;07.12.2020;04:14:36;Cycle         ;03.12.2018;FEY;;LION;49;14500;7200;192;2;95;97;8400;;4115;4116;1;12990;25.44;27.74;30,3;BCS1388054;6;18
009660;08.12.2020;16:20:13;Stop          ;03.12.2018;FEY;;LION;49;14500;7200;192;2;95;97;8400;;4114;4115;1;12990;27.34;29.34;31,9;BCS1388054;6;18
009660;12.01.2021;04:17:33;Charge to 90% ;03.12.2018;FEY;;LION;49;14500;7200;192;2;94;96;8400;;4104;4104;1;13011;22.74;23.74;23,6;BCS1388054;4;12
009660;12.01.2021;04:57:16;Stop          ;03.12.2018;FEY;;LION;49;14500;7200;192;2;88;90;8400;3000;4044;4045;1;13007;27.44;27.64;31,6;BCS1388054;4;12
009660;12.01.2021;05:21:49;Cycle         ;03.12.2018;FEY;;LION;49;14500;7200;192;2;88;90;8400;3000;4046;4047;1;13008;26.94;26.64;30,4;BCS1388054;4;12
009660;13.01.2021;08:19:19;Stop          ;03.12.2018;FEY;;LION;49;14500;7200;224;4;96;100;8400;;4155;4158;1;13007;26.54;27.14;30,7;BCS1388054;4;12
009660;06.04.2021;08:38:50;Normalcharge  ;03.12.2018;FEY;;LION;49;14500;7200;192;4;94;98;8400;;4115;4117;1;13009;20.24;25.14;28,1;BCS1388054;3;10
009660;06.04.2021;08:39:42;Stop           ;03.12.2018;FEY;;LION;49;14500;7200;192;4;94;98;8400;;4115;4117;1;13007;20.34;25.34;28,2;BCS1388054;3;10
009660;08.04.2021;07:58:01;Normalcharge  ;03.12.2018;FEY;;LION;49;14500;7200;192;4;94;98;8400;;4115;4117;1;13008;24.94;25.44;26,4;BCS1388054;3;10
009660;08.04.2021;07:59:40;Stop           ;03.12.2018;FEY;;LION;49;14500;7200;192;4;94;98;8400;;4115;4117;1;13008;24.94;26.04;26,8;BCS1388054;3;10
009660;08.04.2021;10:35:05;Normalcharge  ;03.12.2018;FEY;;LION;49;14500;7200;192;4;94;98;8400;;4115;4117;1;13010;25.14;25.74;28,1;BCS1388054;3;10
009660;08.04.2021;10:36:56;Stop           ;03.12.2018;FEY;;LION;49;14500;7200;192;4;94;98;8400;;4115;4117;1;13006;25.14;26.44;29,0;BCS1388054;3;10
009660;18.04.2021;08:33:50;Normalcharge  ;03.12.2018;FEY;;LION;49;14500;7200;192;4;94;97;8400;;4112;4114;1;13008;25.84;26.74;27,8;BCS1388054;3;10
009660;18.04.2021;08:33:58;Stop           ;03.12.2018;FEY;;LION;49;14500;7200;192;4;94;97;8400;;4112;4113;1;13008;25.84;26.84;27,9;BCS1388054;3;10
009660;04.08.2021;07:24:50;Normalcharge  ;03.12.2018;FEY;;LION;49;14500;7200;192;4;93;96;8400;;4083;4085;1;13002;30.04;31.04;31,6;BCS1388054;3;10
009660;04.08.2021;07:25:37;Stop           ;03.12.2018;FEY;;LION;49;14500;7200;192;4;93;96;8400;;4084;4085;1;13000;30.04;31.34;31,7;BCS1388054;3;10
009660;22.08.2021;11:08:05;Normalcharge  ;03.12.2018;FEY;;LION;49;14500;7200;192;4;67;70;8400;3000;3850;3851;1;13004;22.34;29.24;32,1;BCS1388054;4;13
009660;22.08.2021;11:08:38;Stop          ;03.12.2018;FEY;;LION;49;14500;7200;128;4;67;70;8400;3000;3890;3870;1;12678;22.44;30.54;32,5;BCS1388054;4;13
009660;01.11.2021;10:18:15;Normalcharge  ;03.12.2018;FEY;;LION;49;14500;7200;2768;5;;;8400;3000;3093;3125;1;13003;23.44;26.24;28,2;BCS1388054;3;2
009660;01.11.2021;10:18:55;Stop           ;03.12.2018;FEY;;LION;49;14500;7200;144;5;;;8400;3000;3196;3199;1;12626;23.44;27.64;28,2;BCS1388054;3;2
009660;01.11.2021;10:27:50;Normalcharge  ;03.12.2018;FEY;;LION;49;14500;7200;720;5;;;8400;3000;3096;3128;1;13003;23.94;26.44;27,8;BCS1388054;3;2
009660;01.11.2021;10:29:05;Stop           ;03.12.2018;FEY;;LION;49;14500;7200;144;5;;;8400;3000;3274;3253;1;12586;24.04;29.54;28,5;BCS1388054;3;2
009660;01.11.2021;10:32:24;Ladung auf 60% ;03.12.2018;FEY;;LION;49;14500;7200;720;5;;;8400;3000;3123;3152;1;12997;24.24;27.54;29,7;BCS1388054;3;2
009660;01.11.2021;15:19:46;Stop           ;03.12.2018;FEY;;LION;49;14500;7200;192;5;54;60;8400;3000;3800;3801;1;12998;30.34;30.24;32,7;BCS1388054;3;2
009660;07.02.2022;08:50:57;Normalcharge  ;03.12.2018;FEY;;LION;49;14500;7200;192;5;56;59;8400;3000;3732;3733;1;13022;21.94;23.14;25,1;BCS1388054;4;16
009660;07.02.2022;13:19:09;Stop          ;03.12.2018;FEY;;LION;49;14500;7200;224;5;95;100;8400;;4157;4158;1;13016;26.54;27.74;29,7;BCS1388054;4;16
009660;14.03.2022;12:14:39;Normalcharge  ;03.12.2018;FEY;;LION;49;14500;7200;224;5;93;99;8400;;4128;4129;1;13005;24.14;26.44;27,7;BCS1388054;2;3
009660;14.03.2022;12:15:13;Stop          ;03.12.2018;FEY;;LION;49;14500;7200;224;5;93;99;8400;;4128;4129;1;13004;24.04;26.74;27,9;BCS1388054;2;3
009660;14.03.2022;12:17:51;Normalcharge  ;03.12.2018;FEY;;LION;49;14500;7200;224;5;93;99;8400;;4128;4129;1;13002;24.14;27.34;29,2;BCS1388054;2;3
009660;14.03.2022;12:18:32;Stop          ;03.12.2018;FEY;;LION;49;14500;7200;224;5;93;99;8400;;4128;4129;1;13002;24.14;27.34;29,5;BCS1388054;2;3
009660;14.03.2022;12:19:02;Normalcharge  ;03.12.2018;FEY;;LION;49;14500;7200;224;5;93;99;8400;;4128;4129;1;13002;24.14;27.34;29,5;BCS1388054;2;3
009660;14.03.2022;12:19:06;Stop          ;03.12.2018;FEY;;LION;49;14500;7200;224;5;93;99;8400;;4128;4129;1;13003;24.14;27.44;29,6;BCS1388054;2;3