File: reader/Batterieverzeichnis_new/009661.txt
Serialnumber ; Date ; Time ; Action ; Date of Manufacture ; Manufacturer ; Battery Name ; Device-Chemistry ; Specification-Info ; Design-Capacity [mAh] ; Design-Voltage [mV] ; Battery Status ; Cycle Count ; SOC [%] ; Relativ SOC[%] ; Desired Voltage [mV]; Desired Current [mA]; Cell Voltage 1 [mV] ; Cell Voltage 2 [mV] ; Max_Error [%] ; Busvoltage[mV] ; Battery Temperature [°C] ; Charger Temperature [°C] ; Batterysystem ; Case ; PLace
009661;07.12.2020;04:14:21;Cycle         ;03.12.2018;FEY;;LION;49;14500;7200;224;3;97;99;8400;;4137;4136;1;13009;24.94;27.54;30,3;BCS1388054;2;9
009661;08.12.2020;16:19:44;Stop          ;03.12.2018;FEY;;LION;49;14500;7200;224;4;98;100;8400;;4153;4153;1;13009;27.14;29.14;31,9;BCS1388054;2;9
009661;03.03.2021;08:17:08;Normalcharge  ;03.12.2018;FEY;;LION;49;14500;7200;192;4;95;98;8400;;4117;4117;1;12998;22.44;23.04;23,5;BCS1388054;1;5
009661;04.03.2021;07:53:50;Stop          ;03.12.2018;FEY;;LION;49;14500;7200;192;4;95;98;8400;;4116;4116;1;12992;25.34;26.64;31,6;BCS1388054;1;5
009661;04.04.2021;11:50:10;Normalcharge  ;03.12.2018;FEY;;LION;49;14500;7200;192;4;51;52;8400;3000;3674;3673;1;13018;24.24;25.94;27,8;BCS1388054;5;9
009661;04.04.2021;11:51:30;Stop          ;03.12.2018;FEY;;LION;49;14500;7200;128;4;51;53;8400;3000;3762;3712;1;12679;24.24;28.84;28,5;BCS1388054;5;9
009661;05.04.2021;09:38:11;Charge to 60% ;03.12.2018;FEY;;LION;49;14500;7200;192;4;51;53;8400;3000;3675;3675;1;12992;24.34;25.64;26,3;BCS1388054;4;11
009661;05.04.2021;10:13:52;Stop          ;03.12.2018;FEY;;LION;49;14500;7200;192;4;58;60;8400;3000;3757;3759;1;12989;27.14;28.54;32,1;BCS1388054;4;11
009661;22.08.2021;11:37:30;Normalcharge  ;03.12.2018;FEY;;LION;49;14500;7200;192;4;54;56;8400;3000;3700;3700;1;13008;20.54;28.24;31,9;BCS1388054;3;15
009661;22.08.2021;11:38:19;Stop           ;03.12.2018;FEY;;LION;49;14500;7200;128;4;54;56;8400;3000;3787;3741;1;12566;20.74;30.54;32,1;BCS1388054;3;15
009661;25.08.2021;08:15:15;Ladung auf 60% ;03.12.2018;FEY;;LION;49;14500;7200;192;4;54;56;8400;3000;3701;3702;1;13002;29.74;31.94;33,4;BCS1388054;3;15
009661;25.08.2021;08:40:44;Stop           ;03.12.2018;FEY;;LION;49;14500;7200;192;4;58;60;8400;3000;3755;3756;1;13001;31.54;35.44;36,1;BCS1388054;3;15
009661;01.11.2021;09:51:56;Normalcharge  ;03.12.2018;FEY;;LION;49;14500;7200;192;4;56;57;8400;3000;3719;3719;1;12994;25.14;26.44;26,3;BCS1388054;6;18
009661;01.11.2021;09:53:46;Stop          ;03.12.2018;FEY;;LION;49;14500;7200;128;4;56;58;8400;3000;3814;3767;1;12602;25.24;30.94;27,3;BCS1388054;6;18
009661;01.11.2021;10:02:24;Normalcharge  ;03.12.2018;FEY;;LION;49;14500;7200;192;4;56;58;8400;3000;3724;3725;1;12988;25.44;28.04;29,5;BCS1388054;6;18
009661;01.11.2021;10:03:07;Stop          ;03.12.2018;FEY;;LION;49;14500;7200;128;4;56;58;8400;3000;3810;3762;1;12597;25.44;30.04;29,3;BCS1388054;6;18
009661;01.11.2021;10:27:30;Normalcharge  ;03.12.2018;FEY;;LION;49;14500;7200;192;4;56;58;8400;3000;3725;3726;1;12990;25.64;27.14;27,8;BCS1388054;6;18
009661;01.11.2021;10:29:18;Stop          ;03.12.2018;FEY;;LION;49;14500;7200;128;4;56;58;8400;3000;3819;3772;1;12591;25.74;31.54;28,6;BCS1388054;6;18
009661;01.11.2021;10:32:43;Charge to 60% ;03.12.2018;FEY;;LION;49;14500;7200;192;4;57;58;8400;3000;3731;3731;1;12989;25.84;25.54;29,7;BCS1388054;6;18
009661;01.11.2021;14:25:59;Stop          ;03.12.2018;FEY;;LION;49;14500;7200;192;4;58;60;8400;3000;3751;3752;1;12989;27.44;29.84;32,6;BCS1388054;6;18
009661;09.02.2022;08:17:09;Normalcharge  ;03.12.2018;FEY;;LION;49;14500;7200;192;4;56;57;8400;3000;3713;3714;1;13010;21.94;22.94;23,3;BCS1388054;5;3
009661;09.02.2022;13:56:40;Stop          ;03.12.2018;FEY;;LION;49;14500;7200;224;4;98;100;8400;;4154;4154;1;13002;23.94;26.14;29,9;BCS1388054;5;3
009661;14.03.2022;10:34:44;Normalcharge  ;03.12.2018;FEY;;LION;49;14500;7200;224;4;96;99;8400;;4130;4130;1;13013;23.64;25.04;26,0;BCS1388054;1;16
009661;14.03.2022;10:38:55;Stop          ;03.12.2018;FEY;;LION;49;14500;7200;224;4;96;99;8400;;4130;4130;1;12970;23.74;25.94;28,2;BCS1388054;1;16