File: reader/Batterieverzeichnis_new/009652.txt
Serialnumber ; Date ; Time ; Action ; Date of Manufacture ; Manufacturer ; Battery Name ; Device-Chemistry ; Specification-Info ; Design-Capacity [mAh] ; Design-Voltage [mV] ; Battery Status ; Cycle Count ; SOC [%] ; Relativ SOC[%] ; Desired Voltage [mV]; Desired Current [mA]; Cell Voltage 1 [mV] ; Cell Voltage 2 [mV] ; Max_Error [%] ; Busvoltage[mV] ; Battery Temperature [°C] ; Charger Temperature [°C] ; Batterysystem ; Case ; PLace
009652;07.12.2020;04:14:25;Cycle          ;04.12.2018;FEY;;LION;49;14500;7200;16576;2;99;99;;;4151;4153;1;13010;25.64;27.94;30,3;BCS1388054;3;3
009652;08.12.2020;16:19:50;Stop           ;04.12.2018;FEY;;LION;49;14500;7200;16576;2;99;99;;;4148;4150;1;13012;27.84;29.54;31,9;BCS1388054;3;3
009652;03.03.2021;08:17:40;Normalcharge  ;04.12.2018;FEY;;LION;49;14500;7200;192;2;72;72;8400;3000;3870;3871;1;13015;23.14;23.74;23,6;BCS1388054;6;3
009652;03.03.2021;11:56:52;Stop          ;04.12.2018;FEY;;LION;49;14500;7200;224;2;100;100;8400;;4158;4159;1;13009;28.04;29.84;31,7;BCS1388054;6;3
009652;06.04.2021;08:38:46;Normalcharge  ;04.12.2018;FEY;;LION;49;14500;7200;224;2;99;99;8400;;4133;4134;1;13007;20.84;26.24;28,1;BCS1388054;2;10
009652;06.04.2021;08:39:36;Stop          ;04.12.2018;FEY;;LION;49;14500;7200;224;2;99;99;8400;;4133;4134;1;13005;20.94;26.44;28,2;BCS1388054;2;10
009652;08.04.2021;07:57:57;Normalcharge  ;04.12.2018;FEY;;LION;49;14500;7200;224;2;99;99;8400;;4133;4134;1;13009;25.24;26.34;26,3;BCS1388054;2;10
009652;08.04.2021;07:59:45;Stop          ;04.12.2018;FEY;;LION;49;14500;7200;224;2;99;99;8400;;4133;4134;1;13005;25.24;27.04;26,8;BCS1388054;2;10
009652;08.04.2021;10:35:00;Normalcharge  ;04.12.2018;FEY;;LION;49;14500;7200;224;2;99;99;8400;;4133;4134;1;13008;25.64;26.84;28,1;BCS1388054;2;10
009652;08.04.2021;10:36:53;Stop          ;04.12.2018;FEY;;LION;49;14500;7200;224;2;99;99;8400;;4133;4134;1;13004;25.64;27.54;28,9;BCS1388054;2;10
009652;18.04.2021;08:33:36;Normalcharge  ;04.12.2018;FEY;;LION;49;14500;7200;224;2;98;99;8400;;4129;4130;1;13005;26.14;27.74;27,7;BCS1388054;2;10
009652;18.04.2021;08:33:44;Stop          ;04.12.2018;FEY;;LION;49;14500;7200;224;2;98;99;8400;;4129;4130;1;13004;26.14;27.74;27,8;BCS1388054;2;10
009652;04.08.2021;07:24:55;Normalcharge  ;04.12.2018;FEY;;LION;49;14500;7200;192;2;96;96;8400;;4096;4096;1;12998;30.44;32.04;31,5;BCS1388054;2;10
009652;04.08.2021;07:25:47;Stop          ;04.12.2018;FEY;;LION;49;14500;7200;192;2;96;96;8400;;4095;4096;1;12995;30.44;32.34;31,9;BCS1388054;2;10
009652;22.08.2021;11:08:08;Normalcharge  ;04.12.2018;FEY;;LION;49;14500;7200;192;2;93;94;8400;3000;4082;4083;1;13010;23.94;29.74;32,1;BCS1388054;5;2
009652;22.08.2021;11:08:41;Stop          ;04.12.2018;FEY;;LION;49;14500;7200;128;2;93;94;8400;3000;4106;4096;1;12848;23.94;31.24;32,5;BCS1388054;5;2
009652;14.10.2021;12:39:57;Normalcharge  ;04.12.2018;FEY;;LION;49;14500;7200;192;2;92;93;8400;3000;4068;4068;1;13003;25.44;27.04;27,9;BCS1388054;2;3
009652;14.10.2021;12:41:24;Stop          ;04.12.2018;FEY;;LION;49;14500;7200;128;2;92;93;8400;3000;4133;4106;1;12577;25.54;30.24;28,2;BCS1388054;2;3
009652;01.11.2021;09:52:10;Normalcharge  ;04.12.2018;FEY;;LION;49;14500;7200;192;2;89;90;8400;3000;4036;4037;1;13006;24.24;25.14;26,4;BCS1388054;3;5
009652;01.11.2021;09:53:26;Stop           ;04.12.2018;FEY;;LION;49;14500;7200;128;2;89;90;8400;3000;4116;4080;1;12607;24.34;27.84;27,1;BCS1388054;3;5
009652;01.11.2021;10:02:09;Normalcharge  ;04.12.2018;FEY;;LION;49;14500;7200;192;2;89;90;8400;3000;4038;4039;1;13002;24.64;26.94;29,5;BCS1388054;3;5
009652;01.11.2021;10:03:20;Stop           ;04.12.2018;FEY;;LION;49;14500;7200;128;2;89;90;8400;3000;4114;4080;1;12603;24.84;28.84;29,5;BCS1388054;3;5
009652;28.12.2021;09:01:25;Normalcharge  ;04.12.2018;FEY;;LION;49;14500;7200;192;2;85;86;8400;3000;3990;3991;1;13005;23.44;24.64;25,3;BCS1388054;3;1
009652;28.12.2021;09:02:24;Stop           ;04.12.2018;FEY;;LION;49;14500;7200;128;2;85;86;8400;3000;4083;4038;1;12573;23.54;27.04;25,8;BCS1388054;3;1
009652;13.03.2022;12:10:09;Normalcharge  ;04.12.2018;FEY;;LION;49;14500;7200;192;2;48;49;8400;3000;3646;3647;1;13009;24.14;23.54;25,6;BCS1388054;3;2
009652;13.03.2022;12:10:50;Stop           ;04.12.2018;FEY;;LION;49;14500;7200;128;2;48;49;8400;3000;3679;3661;1;12756;24.14;25.24;25,7;BCS1388054;3;2