File: reader/Batterieverzeichnis_new/009659.txt
Serialnumber ; Date ; Time ; Action ; Date of Manufacture ; Manufacturer ; Battery Name ; Device-Chemistry ; Specification-Info ; Design-Capacity [mAh] ; Design-Voltage [mV] ; Battery Status ; Cycle Count ; SOC [%] ; Relativ SOC[%] ; Desired Voltage [mV]; Desired Current [mA]; Cell Voltage 1 [mV] ; Cell Voltage 2 [mV] ; Max_Error [%] ; Busvoltage[mV] ; Battery Temperature [°C] ; Charger Temperature [°C] ; Batterysystem ; Case ; PLace
009659;07.02.2021;08:47:07;Normalcharge  ;03.12.2018;FEY;;LION;49;14500;7200;192;3;85;86;8400;3000;4005;4005;1;13013;22.84;26.54;29,2;BCS1388054;5;2
009659;07.02.2021;11:50:11;Stop          ;03.12.2018;FEY;;LION;49;14500;7200;224;3;99;100;8400;;4154;4153;1;13013;25.14;28.04;30,0;BCS1388054;5;2
009659;03.03.2021;08:17:17;Normalcharge  ;03.12.2018;FEY;;LION;49;14500;7200;192;3;92;95;8400;3000;4087;4088;1;13008;22.54;23.04;23,5;BCS1388054;2;11
009659;04.03.2021;07:53:46;Stop          ;03.12.2018;FEY;;LION;49;14500;7200;224;3;98;100;8400;;4148;4147;1;13000;25.74;26.74;31,6;BCS1388054;2;11
009659;04.04.2021;11:50:39;Normalcharge  ;03.12.2018;FEY;;LION;49;14500;7200;192;3;53;55;8400;3000;3691;3692;1;12995;24.34;26.84;28,1;BCS1388054;1;14
009659;04.04.2021;11:51:54;Stop          ;03.12.2018;FEY;;LION;49;14500;7200;128;3;53;55;8400;3000;3776;3731;1;12555;24.44;30.04;28,8;BCS1388054;1;14
009659;05.04.2021;09:37:46;Charge to 60% ;03.12.2018;FEY;;LION;49;14500;7200;192;3;53;55;8400;3000;3693;3694;1;13004;24.54;26.44;26,1;BCS1388054;2;17
009659;05.04.2021;10:03:48;Stop          ;03.12.2018;FEY;;LION;49;14500;7200;192;3;58;60;8400;3000;3760;3761;1;12999;26.64;31.34;31,4;BCS1388054;2;17
009659;22.08.2021;11:37:21;Normalcharge  ;03.12.2018;FEY;;LION;49;14500;7200;704;4;2;2;8400;3000;3199;3214;1;13006;21.24;28.74;31,9;BCS1388054;5;4
009659;22.08.2021;11:38:04;Stop          ;03.12.2018;FEY;;LION;49;14500;7200;128;4;2;2;8400;3000;3358;3326;1;12760;21.34;30.54;32,0;BCS1388054;5;4
009659;25.08.2021;08:15:02;Charge to 60% ;03.12.2018;FEY;;LION;49;14500;7200;704;4;2;2;8400;3000;3194;3209;1;13003;29.74;32.04;33,2;BCS1388054;5;4
009659;25.08.2021;13:03:31;Stop          ;03.12.2018;FEY;;LION;49;14500;7200;192;4;58;60;8400;3000;3786;3787;1;13001;33.24;34.34;36,6;BCS1388054;5;4
009659;28.12.2021;09:01:29;Normalcharge  ;03.12.2018;FEY;;LION;49;14500;7200;192;4;45;46;8400;3000;3627;3627;1;12995;22.94;25.14;25,4;BCS1388054;4;2
009659;28.12.2021;09:02:38;Stop          ;03.12.2018;FEY;;LION;49;14500;7200;128;4;45;46;8400;3000;3713;3668;1;12598;22.94;28.04;25,8;BCS1388054;4;2
009659;07.02.2022;08:50:37;Normalcharge  ;03.12.2018;FEY;;LION;49;14500;7200;192;4;45;46;8400;3000;3622;3622;1;13029;21.64;22.04;25,0;BCS1388054;7;17
009659;07.02.2022;14:21:07;Stop          ;03.12.2018;FEY;;LION;49;14500;7200;224;4;98;100;8400;;4159;4160;1;13022;24.24;26.34;28,9;BCS1388054;7;17
009659;14.03.2022;10:33:51;Normalcharge  ;03.12.2018;FEY;;LION;49;14500;7200;192;5;78;81;8400;3000;3936;3936;1;13015;23.54;25.44;25,3;BCS1388054;5;2
009659;14.03.2022;10:38:12;Stop          ;03.12.2018;FEY;;LION;49;14500;7200;128;5;79;81;8400;3000;4044;3997;1;12717;23.84;31.74;28,1;BCS1388054;5;2
009659;17.05.2022;08:54:14;Normalcharge  ;03.12.2018;FEY;;LION;49;14500;7200;192;5;79;81;8400;3000;3927;3927;1;12991;28.04;30.44;30,8;BCS1388054;3;8
009659;17.05.2022;12:55:21;Stop           ;03.12.2018;FEY;;LION;49;14500;7200;224;5;98;100;8400;;4156;4157;1;12990;30.84;33.04;34,1;BCS1388054;3;8