File: reader/Batterieverzeichnis_new/009687.txt
Serialnumber ; Date ; Time ; Action ; Date of Manufacture ; Manufacturer ; Battery Name ; Device-Chemistry ; Specification-Info ; Design-Capacity [mAh] ; Design-Voltage [mV] ; Battery Status ; Cycle Count ; SOC [%] ; Relativ SOC[%] ; Desired Voltage [mV]; Desired Current [mA]; Cell Voltage 1 [mV] ; Cell Voltage 2 [mV] ; Max_Error [%] ; Busvoltage[mV] ; Battery Temperature [°C] ; Charger Temperature [°C] ; Batterysystem ; Case ; PLace
009687;07.12.2020;04:14:40;Cycle         ;04.12.2018;FEY;;LION;49;14500;7200;192;3;95;96;8400;;4107;4107;1;13022;25.74;26.34;30,3;BCS1388054;7;11
009687;08.12.2020;16:20:20;Stop          ;04.12.2018;FEY;;LION;49;14500;7200;192;3;95;96;8400;;4106;4106;1;13019;27.54;27.54;31,9;BCS1388054;7;11
009687;12.01.2021;04:16:00;Charge to 90% ;04.12.2018;FEY;;LION;49;14500;7200;192;3;87;89;8400;3000;4030;4031;1;12999;23.14;22.04;23,0;BCS1388054;1;11
009687;12.01.2021;04:16:03;Stop          ;04.12.2018;FEY;;LION;49;14500;7200;192;3;87;89;8400;3000;4030;4031;1;13000;23.14;22.64;23,0;BCS1388054;1;11
009687;12.01.2021;04:17:15;Charge to 90% ;04.12.2018;FEY;;LION;49;14500;7200;192;3;87;89;8400;3000;4030;4031;1;12996;23.14;23.04;23,5;BCS1388054;1;11
009687;12.01.2021;04:55:18;Stop          ;04.12.2018;FEY;;LION;49;14500;7200;192;3;88;90;8400;3000;4041;4043;1;12990;26.34;28.24;31,7;BCS1388054;1;11
009687;12.01.2021;05:21:33;Cycle         ;04.12.2018;FEY;;LION;49;14500;7200;192;3;88;90;8400;3000;4041;4042;1;12991;26.74;26.44;30,6;BCS1388054;1;11
009687;13.01.2021;08:18:34;Stop          ;04.12.2018;FEY;;LION;49;14500;7200;224;4;96;100;8400;;4155;4158;1;12993;26.54;26.34;30,7;BCS1388054;1;11
009687;03.03.2021;08:17:21;Normalcharge  ;04.12.2018;FEY;;LION;49;14500;7200;192;4;91;94;8400;3000;4085;4087;1;13019;23.24;23.14;23,5;BCS1388054;3;3
009687;04.03.2021;07:53:39;Stop           ;04.12.2018;FEY;;LION;49;14500;7200;224;4;97;100;8400;;4147;4149;1;13015;26.54;28.14;31,5;BCS1388054;3;3
009687;04.04.2021;11:50:22;Normalcharge  ;04.12.2018;FEY;;LION;49;14500;7200;192;5;16;16;8400;3000;3409;3420;1;13009;25.24;26.04;27,9;BCS1388054;4;12
009687;04.04.2021;11:51:36;Stop          ;04.12.2018;FEY;;LION;49;14500;7200;128;5;16;16;8400;3000;3508;3470;1;12715;25.24;27.84;28,6;BCS1388054;4;12
009687;05.04.2021;09:38:17;Charge to 60% ;04.12.2018;FEY;;LION;49;14500;7200;192;5;16;16;8400;3000;3413;3423;1;13016;25.14;25.44;26,4;BCS1388054;5;17
009687;05.04.2021;10:34:50;Charge to 60% ;04.12.2018;FEY;;LION;49;14500;7200;128;5;27;28;8400;3000;3644;3598;1;12913;28.64;35.64;32,4;BCS1388054;5;17
009687;05.04.2021;13:16:09;Stop          ;04.12.2018;FEY;;LION;49;14500;7200;192;5;57;60;8400;3000;3752;3761;1;13012;29.24;29.24;32,2;BCS1388054;5;17
009687;22.08.2021;11:37:30;Normalcharge  ;04.12.2018;FEY;;LION;49;14500;7200;192;5;53;55;8400;3000;3696;3699;1;13001;22.14;28.84;31,9;BCS1388054;3;5
009687;22.08.2021;11:38:19;Stop           ;04.12.2018;FEY;;LION;49;14500;7200;128;5;53;55;8400;3000;3782;3739;1;12570;22.24;30.84;32,1;BCS1388054;3;5
009687;25.08.2021;08:15:15;Ladung auf 60% ;04.12.2018;FEY;;LION;49;14500;7200;192;5;53;55;8400;3000;3698;3701;1;12999;30.54;31.54;33,4;BCS1388054;3;5
009687;25.08.2021;08:40:44;Stop           ;04.12.2018;FEY;;LION;49;14500;7200;192;5;57;60;8400;3000;3755;3764;1;12999;32.24;33.54;36,1;BCS1388054;3;5
009687;01.11.2021;09:52:01;Normalcharge  ;04.12.2018;FEY;;LION;49;14500;7200;192;5;55;57;8400;3000;3717;3721;1;13017;25.84;25.64;26,3;BCS1388054;5;17
009687;01.11.2021;09:53:41;Stop          ;04.12.2018;FEY;;LION;49;14500;7200;128;5;55;57;8400;3000;3810;3766;1;12580;25.94;29.54;27,3;BCS1388054;5;17
009687;01.11.2021;10:02:19;Normalcharge  ;04.12.2018;FEY;;LION;49;14500;7200;192;5;55;57;8400;3000;3721;3725;1;13011;26.04;27.44;29,5;BCS1388054;5;17
009687;01.11.2021;10:03:11;Stop          ;04.12.2018;FEY;;LION;49;14500;7200;128;5;55;58;8400;3000;3808;3765;1;12579;26.04;29.64;29,3;BCS1388054;5;17
009687;01.11.2021;10:27:35;Normalcharge  ;04.12.2018;FEY;;LION;49;14500;7200;192;5;55;58;8400;3000;3723;3727;1;13014;26.24;26.24;27,8;BCS1388054;5;17
009687;01.11.2021;10:29:14;Stop          ;04.12.2018;FEY;;LION;49;14500;7200;128;5;55;58;8400;3000;3816;3773;1;12576;26.34;30.34;28,6;BCS1388054;5;17
009687;01.11.2021;10:32:33;Charge to 60% ;04.12.2018;FEY;;LION;49;14500;7200;192;5;55;58;8400;3000;3728;3732;1;13012;26.34;27.84;29,9;BCS1388054;5;17
009687;01.11.2021;11:11:47;Stop          ;04.12.2018;FEY;;LION;49;14500;7200;192;5;57;60;8400;3000;3753;3759;1;13011;27.74;29.34;32,5;BCS1388054;5;17
009687;09.02.2022;08:16:53;Normalcharge  ;04.12.2018;FEY;;LION;49;14500;7200;192;5;45;48;8400;3000;3634;3637;1;12996;22.34;22.64;23,1;BCS1388054;1;1
009687;09.02.2022;13:56:48;Stop          ;04.12.2018;FEY;;LION;49;14500;7200;224;5;96;100;8400;;4157;4156;1;12957;25.74;27.14;29,9;BCS1388054;1;1
009687;14.03.2022;10:33:46;Normalcharge  ;04.12.2018;FEY;;LION;49;14500;7200;192;6;63;65;8400;3000;3789;3796;1;12996;24.24;25.04;25,1;BCS1388054;6;18
009687;14.03.2022;10:38:06;Stop          ;04.12.2018;FEY;;LION;49;14500;7200;128;6;63;66;8400;3000;3902;3857;1;12630;24.54;32.04;28,1;BCS1388054;6;18