File: reader/Batterieverzeichnis_new/009630.txt
Serialnumber ; Date ; Time ; Action ; Date of Manufacture ; Manufacturer ; Battery Name ; Device-Chemistry ; Specification-Info ; Design-Capacity [mAh] ; Design-Voltage [mV] ; Battery Status ; Cycle Count ; SOC [%] ; Relativ SOC[%] ; Desired Voltage [mV]; Desired Current [mA]; Cell Voltage 1 [mV] ; Cell Voltage 2 [mV] ; Max_Error [%] ; Busvoltage[mV] ; Battery Temperature [°C] ; Charger Temperature [°C] ; Batterysystem ; Case ; PLace
009630;10.12.2019;15:28:47;Ladung auf 30% ;04.12.2018;FEY;;LION;49;14500;7200;224;47;93;99;8400;;4131;4132;1;13010;23.04;24.34;27,1;BCS1388054;3;9
009630;10.12.2019;20:47:21;Stop           ;04.12.2018;FEY;;LION;49;14500;7200;192;48;29;30;8400;3000;3560;3560;1;13009;34.74;33.94;33,5;BCS1388054;3;9
009630;11.12.2019;08:48:36;Fastcharge    ;04.12.2018;FEY;;LION;49;14500;7200;192;48;29;30;8400;3000;3568;3569;1;13007;26.74;27.84;31,9;BCS1388054;3;9
009630;11.12.2019;13:39:41;Stop           ;04.12.2018;FEY;;LION;49;14500;7200;224;48;95;100;8400;;4161;4162;1;13007;31.44;30.54;32,5;BCS1388054;3;9
009630;11.12.2019;15:46:24;Ladung auf 10% ;04.12.2018;FEY;;LION;49;14500;7200;224;48;96;100;8400;;4154;4154;1;13008;27.84;28.34;31,4;BCS1388054;3;9
009630;11.12.2019;22:48:44;Stop           ;04.12.2018;FEY;;LION;49;14500;7200;192;49;10;10;8400;3000;3357;3358;1;13009;35.64;34.24;33,6;BCS1388054;3;9
009630;12.12.2019;08:44:58;Normalcharge  ;04.12.2018;FEY;;LION;49;14500;7200;192;49;9;10;8400;3000;3366;3367;1;13007;26.94;28.04;31,9;BCS1388054;3;9
009630;12.12.2019;16:39:24;Stop           ;04.12.2018;FEY;;LION;49;14500;7200;224;49;96;100;8400;;4160;4161;1;13008;30.34;30.04;31,7;BCS1388054;3;9
009630;13.12.2019;10:47:57;Ladung auf 10% ;04.12.2018;FEY;;LION;49;14500;7200;224;49;96;100;8400;;4148;4149;1;13008;26.94;28.14;32,0;BCS1388054;3;9
009630;13.12.2019;15:42:18;Stop           ;04.12.2018;FEY;;LION;49;14500;7200;192;50;35;36;8400;3000;3500;3552;1;13551;34.24;38.24;34,6;BCS1388054;3;9
009630;13.12.2019;15:42:20;Cycle          ;04.12.2018;FEY;;LION;49;14500;7200;192;50;35;36;8400;3000;3501;3552;1;13009;34.24;38.24;34,6;BCS1388054;3;9
009630;14.12.2019;22:36:33;Stop           ;04.12.2018;FEY;;LION;49;14500;7200;224;51;94;100;8400;;4152;4153;1;13008;27.24;28.04;31,6;BCS1388054;3;9
009630;16.12.2019;07:43:10;Ladung auf 10% ;04.12.2018;FEY;;LION;49;14500;7200;224;51;94;100;8400;;4146;4146;1;13008;26.74;27.34;31,9;BCS1388054;3;9
009630;16.12.2019;14:34:27;Stop           ;04.12.2018;FEY;;LION;49;14500;7200;192;52;10;10;8400;3000;3362;3363;1;13008;34.24;33.44;32,5;BCS1388054;3;9
009630;16.12.2019;14:44:07;Ladung auf 90% ;04.12.2018;FEY;;LION;49;14500;7200;192;52;10;10;8400;3000;3365;3366;1;13009;33.44;31.54;31,7;BCS1388054;3;9
009630;16.12.2019;20:48:39;Stop           ;04.12.2018;FEY;;LION;49;14500;7200;192;52;85;90;8400;3000;4058;4060;1;13010;33.24;32.44;31,9;BCS1388054;3;9
009630;17.12.2019;08:37:44;Fastcharge    ;04.12.2018;FEY;;LION;49;14500;7200;192;52;85;90;8400;3000;4046;4047;1;13007;26.84;27.84;31,5;BCS1388054;3;9
009630;17.12.2019;10:30:44;Stop           ;04.12.2018;FEY;;LION;49;14500;7200;224;52;95;100;8400;;4160;4161;1;13009;28.74;29.34;31,4;BCS1388054;3;9
009630;17.12.2019;13:38:28;Ladung auf 10% ;04.12.2018;FEY;;LION;49;14500;7200;224;52;95;100;8400;;4150;4150;1;13008;27.24;27.94;30,8;BCS1388054;3;9
009630;17.12.2019;20:32:04;Stop           ;04.12.2018;FEY;;LION;49;14500;7200;192;54;10;10;8400;3000;3361;3362;1;13010;35.74;34.84;34,6;BCS1388054;3;9
009630;18.12.2019;08:31:22;Fastcharge    ;04.12.2018;FEY;;LION;49;14500;7200;192;54;10;10;8400;3000;3371;3372;1;13008;26.94;27.94;31,6;BCS1388054;3;9
009630;18.12.2019;14:26:33;Stop           ;04.12.2018;FEY;;LION;49;14500;7200;224;54;95;100;8400;;4161;4162;1;13008;31.54;30.64;32,5;BCS1388054;3;9
009630;19.12.2019;08:23:54;Ladung auf 60% ;04.12.2018;FEY;;LION;49;14500;7200;224;54;96;100;8400;;4149;4150;1;13008;26.84;27.74;31,6;BCS1388054;3;9
009630;19.12.2019;11:28:29;Stop           ;04.12.2018;FEY;;LION;49;14500;7200;192;54;58;60;8400;3000;3763;3763;1;13010;35.34;36.34;35,1;BCS1388054;3;9
009630;19.12.2019;12:16:41;Cycle          ;04.12.2018;FEY;;LION;49;14500;7200;192;54;58;60;8400;3000;3778;3779;1;13008;31.84;30.44;32,7;BCS1388054;3;9
009630;20.12.2019;17:23:28;Stop           ;04.12.2018;FEY;;LION;49;14500;7200;224;55;94;100;8400;;4151;4151;1;13007;27.44;28.14;31,9;BCS1388054;3;9
009630;06.01.2020;06:34:46;Ladung auf 60% ;04.12.2018;FEY;;LION;49;14500;7200;192;55;92;98;8400;;4121;4121;1;13009;26.94;27.84;31,9;BCS1388054;3;9
009630;06.01.2020;09:29:20;Stop           ;04.12.2018;FEY;;LION;49;14500;7200;192;56;57;60;8400;3000;3772;3772;1;13010;34.34;34.44;34,2;BCS1388054;3;9
009630;06.01.2020;09:50:34;Fastcharge    ;04.12.2018;FEY;;LION;49;14500;7200;192;56;57;60;8400;3000;3781;3781;1;13009;32.84;31.34;32,7;BCS1388054;3;9
009630;06.01.2020;13:06:26;Stop           ;04.12.2018;FEY;;LION;49;14500;7200;224;56;94;100;8400;;4160;4159;1;13009;30.94;30.24;32,1;BCS1388054;3;9