File: reader/Batterieverzeichnis_new/009623.txt
Serialnumber ; Date ; Time ; Action ; Date of Manufacture ; Manufacturer ; Battery Name ; Device-Chemistry ; Specification-Info ; Design-Capacity [mAh] ; Design-Voltage [mV] ; Battery Status ; Cycle Count ; SOC [%] ; Relativ SOC[%] ; Desired Voltage [mV]; Desired Current [mA]; Cell Voltage 1 [mV] ; Cell Voltage 2 [mV] ; Max_Error [%] ; Busvoltage[mV] ; Battery Temperature [°C] ; Charger Temperature [°C] ; Batterysystem ; Case ; PLace
009623;10.12.2019;15:29:01;Charge to 30% ;04.12.2018;FEY;;LION;49;14500;7200;224;50;95;100;8400;;4129;4129;1;13007;22.74;23.84;27,1;BCS1388054;5;6
009623;10.12.2019;20:48:54;Stop          ;04.12.2018;FEY;;LION;49;14500;7200;192;51;29;30;8400;3000;3465;3517;1;13006;32.74;32.34;33,1;BCS1388054;5;6
009623;11.12.2019;08:48:53;Fastcharge    ;04.12.2018;FEY;;LION;49;14500;7200;192;51;29;31;8400;3000;3563;3563;1;13007;26.54;26.84;31,9;BCS1388054;5;6
009623;11.12.2019;13:40:11;Stop          ;04.12.2018;FEY;;LION;49;14500;7200;224;51;95;100;8400;;4163;4163;1;13006;29.14;28.14;32,4;BCS1388054;5;6
009623;11.12.2019;15:46:40;Charge to 10% ;04.12.2018;FEY;;LION;49;14500;7200;224;51;97;100;8400;;4151;4151;1;13006;27.04;26.64;31,4;BCS1388054;5;6
009623;11.12.2019;22:49:07;Stop          ;04.12.2018;FEY;;LION;49;14500;7200;192;52;10;10;8400;3000;3344;3345;1;13006;33.24;31.14;33,5;BCS1388054;5;6
009623;12.12.2019;08:45:10;Normalcharge  ;04.12.2018;FEY;;LION;49;14500;7200;192;52;9;10;8400;3000;3360;3361;1;13005;26.74;26.64;31,7;BCS1388054;5;6
009623;12.12.2019;16:41:20;Stop          ;04.12.2018;FEY;;LION;49;14500;7200;224;52;96;100;8400;;4163;4162;1;13006;28.64;27.64;31,6;BCS1388054;5;6
009623;13.12.2019;10:48:05;Charge to 10% ;04.12.2018;FEY;;LION;49;14500;7200;224;52;97;100;8400;;4148;4146;1;13006;26.64;27.14;32,0;BCS1388054;5;6
009623;13.12.2019;15:40:55;Stop          ;04.12.2018;FEY;;LION;49;14500;7200;192;53;36;38;8400;3000;3503;3554;1;13514;31.94;33.04;34,6;BCS1388054;5;6
009623;13.12.2019;15:41:42;Cycle         ;04.12.2018;FEY;;LION;49;14500;7200;192;53;36;38;8400;3000;3584;3584;1;13007;31.94;31.24;34,5;BCS1388054;5;6
009623;14.12.2019;22:39:35;Stop          ;04.12.2018;FEY;;LION;49;14500;7200;224;54;94;99;8400;;4152;4152;1;13007;26.64;26.94;31,7;BCS1388054;5;6
009623;16.12.2019;07:43:20;Charge to 10% ;04.12.2018;FEY;;LION;49;14500;7200;224;54;94;100;8400;;4146;4145;1;13007;26.44;25.74;31,9;BCS1388054;5;6
009623;16.12.2019;14:34:29;Stop          ;04.12.2018;FEY;;LION;49;14500;7200;192;55;10;10;8400;3000;3264;3316;1;13007;31.74;31.44;32,5;BCS1388054;5;6
009623;16.12.2019;14:44:17;Charge to 90% ;04.12.2018;FEY;;LION;49;14500;7200;192;55;10;10;8400;3000;3364;3365;1;13007;31.04;28.34;31,9;BCS1388054;5;6
009623;16.12.2019;20:48:55;Stop          ;04.12.2018;FEY;;LION;49;14500;7200;128;55;85;90;8400;3000;4067;4068;1;13007;30.94;29.14;31,9;BCS1388054;5;6
009623;17.12.2019;08:37:53;Fastcharge    ;04.12.2018;FEY;;LION;49;14500;7200;192;55;85;90;8400;3000;4046;4047;1;13006;26.54;26.74;31,6;BCS1388054;5;6
009623;17.12.2019;10:33:46;Stop          ;04.12.2018;FEY;;LION;49;14500;7200;224;55;96;100;8400;;4160;4162;1;13006;27.84;27.24;31,1;BCS1388054;5;6
009623;17.12.2019;10:33:46;Stop          ;04.12.2018;FEY;;LION;49;14500;7200;224;55;96;100;8400;;4160;4162;1;13006;27.84;27.24;31,1;BCS1388054;5;6
009623;17.12.2019;13:38:36;Charge to 10% ;04.12.2018;FEY;;LION;49;14500;7200;224;55;96;100;8400;;4150;4151;1;13007;26.74;26.64;30,8;BCS1388054;5;6
009623;17.12.2019;20:33:18;Stop          ;04.12.2018;FEY;;LION;49;14500;7200;192;56;10;10;8400;3000;3348;3350;1;13007;33.24;32.74;34,5;BCS1388054;5;6
009623;18.12.2019;08:31:30;Fastcharge    ;04.12.2018;FEY;;LION;49;14500;7200;192;56;9;10;8400;3000;3369;3370;1;13007;26.64;26.44;31,6;BCS1388054;5;6
009623;18.12.2019;14:29:27;Stop          ;04.12.2018;FEY;;LION;49;14500;7200;224;56;95;100;8400;;4161;4164;1;13006;29.14;27.74;31,7;BCS1388054;5;6
009623;19.12.2019;08:24:02;Charge to 60% ;04.12.2018;FEY;;LION;49;14500;7200;224;56;96;100;8400;;4147;4149;1;13006;26.54;26.84;31,5;BCS1388054;5;6
009623;19.12.2019;11:31:09;Stop          ;04.12.2018;FEY;;LION;49;14500;7200;192;57;58;60;8400;3000;3759;3762;1;13005;33.24;31.04;34,4;BCS1388054;5;6
009623;19.12.2019;12:16:49;Cycle         ;04.12.2018;FEY;;LION;49;14500;7200;192;57;58;60;8400;3000;3773;3777;1;13007;29.64;28.24;32,7;BCS1388054;5;6
009623;20.12.2019;17:27:50;Stop          ;04.12.2018;FEY;;LION;49;14500;7200;224;58;94;100;8400;;4151;4151;1;13006;26.84;26.14;31,0;BCS1388054;5;6
009623;06.01.2020;06:34:55;Charge to 60% ;04.12.2018;FEY;;LION;49;14500;7200;224;58;94;99;8400;;4121;4121;1;13007;26.84;26.84;31,9;BCS1388054;5;6
009623;06.01.2020;09:30:26;Stop          ;04.12.2018;FEY;;LION;49;14500;7200;192;59;57;60;8400;3000;3770;3771;1;13008;32.44;30.44;33,9;BCS1388054;5;6
009623;06.01.2020;09:50:42;Fastcharge    ;04.12.2018;FEY;;LION;49;14500;7200;192;59;57;60;8400;3000;3780;3782;1;13008;30.74;29.14;32,7;BCS1388054;5;6
009623;06.01.2020;13:09:56;Stop          ;04.12.2018;FEY;;LION;49;14500;7200;224;59;95;100;8400;;4160;4162;1;13007;28.64;27.14;31,4;BCS1388054;5;6