File: reader/Batterieverzeichnis_new/009600.txt
Serialnumber ; Date ; Time ; Action ; Date of Manufacture ; Manufacturer ; Battery Name ; Device-Chemistry ; Specification-Info ; Design-Capacity [mAh] ; Design-Voltage [mV] ; Battery Status ; Cycle Count ; SOC [%] ; Relativ SOC[%] ; Desired Voltage [mV]; Desired Current [mA]; Cell Voltage 1 [mV] ; Cell Voltage 2 [mV] ; Max_Error [%] ; Busvoltage[mV] ; Battery Temperature [°C] ; Charger Temperature [°C] ; Batterysystem ; Case ; PLace
009600;07.12.2020;04:14:36;Cycle         ;03.12.2018;FEY;;LION;49;14500;7200;192;2;96;97;8400;;4133;4134;1;12998;25.84;26.14;30,3;BCS1388054;6;12
009600;08.12.2020;16:20:13;Stop          ;03.12.2018;FEY;;LION;49;14500;7200;192;2;96;97;8400;;4131;4132;1;12996;27.74;27.44;31,9;BCS1388054;6;12
009600;12.01.2021;04:17:33;Charge to 90% ;03.12.2018;FEY;;LION;49;14500;7200;192;2;95;96;8400;;4119;4119;1;13015;23.14;24.14;23,6;BCS1388054;4;10
009600;12.01.2021;04:57:16;Stop          ;03.12.2018;FEY;;LION;49;14500;7200;192;2;90;90;8400;3000;4062;4063;1;13010;26.64;29.14;31,6;BCS1388054;4;10
009600;12.01.2021;05:21:49;Cycle         ;03.12.2018;FEY;;LION;49;14500;7200;192;2;90;90;8400;3000;4065;4065;1;13011;26.94;28.04;30,4;BCS1388054;4;10
009600;13.01.2021;08:19:19;Stop          ;03.12.2018;FEY;;LION;49;14500;7200;224;3;98;100;8400;;4156;4157;1;13010;27.24;28.14;30,7;BCS1388054;4;10
009600;21.02.2021;13:43:32;Normalcharge  ;03.12.2018;FEY;;LION;49;14500;7200;192;4;68;70;8400;3000;3855;3855;1;12999;23.24;25.14;27,5;BCS1388054;2;12
009600;21.02.2021;19:27:00;Stop          ;03.12.2018;FEY;;LION;49;14500;7200;224;4;98;100;8400;;4154;4153;1;12999;26.64;27.64;31,1;BCS1388054;2;12
009600;04.04.2021;11:50:10;Normalcharge  ;03.12.2018;FEY;;LION;49;14500;7200;192;4;53;55;8400;3000;3697;3697;1;13010;25.04;25.84;27,8;BCS1388054;5;11
009600;04.04.2021;11:51:30;Stop          ;03.12.2018;FEY;;LION;49;14500;7200;128;4;53;55;8400;3000;3784;3738;1;12675;25.04;28.54;28,5;BCS1388054;5;11
009600;05.04.2021;09:37:46;Charge to 60% ;03.12.2018;FEY;;LION;49;14500;7200;192;4;53;55;8400;3000;3699;3699;1;12998;25.14;25.64;26,1;BCS1388054;2;13
009600;05.04.2021;10:03:48;Stop          ;03.12.2018;FEY;;LION;49;14500;7200;192;4;58;60;8400;3000;3765;3767;1;12993;27.04;31.04;31,4;BCS1388054;2;13
009600;22.08.2021;11:08:13;Normalcharge  ;03.12.2018;FEY;;LION;49;14500;7200;192;4;54;55;8400;3000;3704;3704;1;12995;29.94;31.44;32,2;BCS1388054;6;2
009600;22.08.2021;11:08:46;Stop          ;03.12.2018;FEY;;LION;49;14500;7200;128;4;54;55;8400;3000;3734;3717;1;12822;29.94;32.84;32,5;BCS1388054;6;2
009600;25.08.2021;08:15:08;Charge to 60% ;03.12.2018;FEY;;LION;49;14500;7200;192;4;54;55;8400;3000;3704;3703;1;12991;30.44;32.84;33,4;BCS1388054;4;3
009600;25.08.2021;12:59:17;Stop          ;03.12.2018;FEY;;LION;49;14500;7200;192;4;58;60;8400;3000;3756;3757;1;12991;32.94;35.44;36,6;BCS1388054;4;3
009600;01.11.2021;09:52:14;Normalcharge  ;03.12.2018;FEY;;LION;49;14500;7200;192;4;56;57;8400;3000;3723;3723;1;13003;25.84;26.44;26,3;BCS1388054;2;4
009600;01.11.2021;09:53:17;Stop          ;03.12.2018;FEY;;LION;49;14500;7200;128;4;56;57;8400;3000;3811;3764;1;12519;25.84;29.34;26,8;BCS1388054;2;4
009600;01.11.2021;10:02:05;Normalcharge  ;03.12.2018;FEY;;LION;49;14500;7200;192;4;56;57;8400;3000;3726;3726;1;12996;25.94;28.24;29,5;BCS1388054;2;4
009600;01.11.2021;10:03:24;Stop          ;03.12.2018;FEY;;LION;49;14500;7200;128;4;56;58;8400;3000;3818;3768;1;12513;26.04;30.94;29,3;BCS1388054;2;4
009600;01.11.2021;10:18:11;Normalcharge  ;03.12.2018;FEY;;LION;49;14500;7200;192;4;56;58;8400;3000;3729;3730;1;12998;26.24;27.44;28,4;BCS1388054;2;4
009600;01.11.2021;10:18:48;Stop          ;03.12.2018;FEY;;LION;49;14500;7200;128;4;56;58;8400;3000;3790;3756;1;12583;26.24;28.94;28,2;BCS1388054;2;4
009600;01.11.2021;10:28:53;Normalcharge  ;03.12.2018;FEY;;LION;49;14500;7200;192;4;56;58;8400;3000;3730;3730;1;12995;26.24;27.84;28,2;BCS1388054;2;4
009600;01.11.2021;10:29:00;Stop          ;03.12.2018;FEY;;LION;49;14500;7200;192;4;56;58;8400;3000;3730;3730;1;12983;26.24;27.94;28,4;BCS1388054;2;4
009600;01.11.2021;11:53:39;Stop          ;03.12.2018;FEY;;LION;49;14500;7200;192;4;58;60;8400;3000;3759;3760;1;12996;28.04;30.04;32,5;BCS1388054;2;4
009600;07.02.2022;08:50:57;Normalcharge  ;03.12.2018;FEY;;LION;49;14500;7200;192;4;56;57;8400;3000;3718;3717;1;13014;22.34;22.24;25,1;BCS1388054;4;13
009600;07.02.2022;13:19:09;Stop          ;03.12.2018;FEY;;LION;49;14500;7200;224;4;97;100;8400;;4162;4162;1;13009;27.34;27.74;29,7;BCS1388054;4;13
009600;14.03.2022;12:14:39;Normalcharge  ;03.12.2018;FEY;;LION;49;14500;7200;224;4;96;99;8400;;4131;4131;1;13000;24.44;24.84;27,7;BCS1388054;2;11
009600;14.03.2022;12:15:13;Stop          ;03.12.2018;FEY;;LION;49;14500;7200;224;4;96;99;8400;;4131;4131;1;12999;24.44;25.04;27,9;BCS1388054;2;11
009600;14.03.2022;12:17:51;Normalcharge  ;03.12.2018;FEY;;LION;49;14500;7200;224;4;96;99;8400;;4131;4131;1;12997;24.54;25.24;29,2;BCS1388054;2;11
009600;14.03.2022;12:18:32;Stop          ;03.12.2018;FEY;;LION;49;14500;7200;224;4;96;99;8400;;4131;4131;1;12997;24.54;25.24;29,5;BCS1388054;2;11
009600;14.03.2022;12:19:02;Normalcharge  ;03.12.2018;FEY;;LION;49;14500;7200;224;4;96;99;8400;;4131;4131;1;12998;24.54;25.24;29,5;BCS1388054;2;11
009600;14.03.2022;12:19:06;Stop          ;03.12.2018;FEY;;LION;49;14500;7200;224;4;96;99;8400;;4131;4131;1;12997;24.54;25.34;29,6;BCS1388054;2;11