File: reader/Batterieverzeichnis_new/009656.txt
Serialnumber ; Date ; Time ; Action ; Date of Manufacture ; Manufacturer ; Battery Name ; Device-Chemistry ; Specification-Info ; Design-Capacity [mAh] ; Design-Voltage [mV] ; Battery Status ; Cycle Count ; SOC [%] ; Relativ SOC[%] ; Desired Voltage [mV]; Desired Current [mA]; Cell Voltage 1 [mV] ; Cell Voltage 2 [mV] ; Max_Error [%] ; Busvoltage[mV] ; Battery Temperature [°C] ; Charger Temperature [°C] ; Batterysystem ; Case ; PLace
009656;12.01.2021;04:17:22;Charge to 90% ;03.12.2018;FEY;;LION;49;14500;7200;16576;2;96;98;;;4133;4133;1;12992;22.54;23.94;23,5;BCS1388054;2;18
009656;12.01.2021;04:54:21;Stop          ;03.12.2018;FEY;;LION;49;14500;7200;192;3;89;90;8400;3000;4047;4046;1;12986;27.34;33.54;31,9;BCS1388054;2;18
009656;12.01.2021;05:21:40;Cycle         ;03.12.2018;FEY;;LION;49;14500;7200;192;3;89;90;8400;3000;4058;4058;1;12986;26.74;28.54;30,6;BCS1388054;2;18
009656;13.01.2021;08:20:19;Stop          ;03.12.2018;FEY;;LION;49;14500;7200;224;4;96;100;8400;;4156;4154;1;12985;26.14;28.34;30,8;BCS1388054;2;18
009656;03.03.2021;08:17:17;Normalcharge  ;03.12.2018;FEY;;LION;49;14500;7200;192;4;91;94;8400;3000;4081;4080;1;12994;22.54;23.74;23,5;BCS1388054;2;18
009656;04.03.2021;07:53:46;Stop          ;03.12.2018;FEY;;LION;49;14500;7200;224;4;97;100;8400;;4148;4147;1;12986;25.74;27.94;31,6;BCS1388054;2;18
009656;04.04.2021;11:49:55;Normalcharge  ;03.12.2018;FEY;;LION;49;14500;7200;192;4;52;54;8400;3000;3689;3689;1;13037;24.54;24.94;27,5;BCS1388054;7;14
009656;04.04.2021;11:51:17;Stop          ;03.12.2018;FEY;;LION;49;14500;7200;128;4;52;54;8400;3000;3777;3730;1;12762;24.64;28.54;28,4;BCS1388054;7;14
009656;05.04.2021;09:38:11;Charge to 60% ;03.12.2018;FEY;;LION;49;14500;7200;192;4;52;55;8400;3000;3692;3691;1;12994;24.44;26.74;26,3;BCS1388054;4;2
009656;05.04.2021;10:13:52;Stop          ;03.12.2018;FEY;;LION;49;14500;7200;192;4;57;60;8400;3000;3754;3753;1;12991;26.64;30.44;32,1;BCS1388054;4;2
009656;22.08.2021;11:37:21;Normalcharge  ;03.12.2018;FEY;;LION;49;14500;7200;224;4;97;100;8400;;4147;4146;1;13012;20.74;27.84;31,9;BCS1388054;5;17
009656;22.08.2021;11:38:04;Stop          ;03.12.2018;FEY;;LION;49;14500;7200;224;4;97;100;8400;;4147;4146;1;12769;20.84;28.14;32,0;BCS1388054;5;17
009656;14.10.2021;12:40:22;Normalcharge  ;03.12.2018;FEY;;LION;49;14500;7200;192;5;93;96;8400;;4091;4090;1;13020;22.84;25.54;28,1;BCS1388054;7;15
009656;14.10.2021;12:42:05;Stop          ;03.12.2018;FEY;;LION;49;14500;7200;192;5;93;96;8400;;4091;4090;1;12730;22.94;26.24;28,5;BCS1388054;7;15
009656;14.03.2022;12:14:21;Normalcharge  ;03.12.2018;FEY;;LION;49;14500;7200;192;5;63;66;8400;3000;3801;3800;1;13008;23.44;25.34;27,5;BCS1388054;6;11
009656;14.03.2022;12:18:18;Stop          ;03.12.2018;FEY;;LION;49;14500;7200;128;5;64;66;8400;3000;3908;3860;1;12830;23.74;29.34;29,3;BCS1388054;6;11
009656;17.05.2022;08:54:14;Normalcharge  ;03.12.2018;FEY;;LION;49;14500;7200;192;5;63;66;8400;3000;3783;3781;1;13009;27.84;29.84;30,8;BCS1388054;3;15
009656;17.05.2022;12:55:21;Stop           ;03.12.2018;FEY;;LION;49;14500;7200;224;5;97;100;8400;;4162;4161;1;13009;30.94;32.64;34,1;BCS1388054;3;15