File: reader/Batterieverzeichnis_new/009752.txt
Serialnumber ; Date ; Time ; Action ; Date of Manufacture ; Manufacturer ; Battery Name ; Device-Chemistry ; Specification-Info ; Design-Capacity [mAh] ; Design-Voltage [mV] ; Battery Status ; Cycle Count ; SOC [%] ; Relativ SOC[%] ; Desired Voltage [mV]; Desired Current [mA]; Cell Voltage 1 [mV] ; Cell Voltage 2 [mV] ; Max_Error [%] ; Busvoltage[mV] ; Battery Temperature [°C] ; Charger Temperature [°C] ; Batterysystem ; Case ; PLace
009752;07.12.2020;04:14:36;Cycle         ;04.12.2018;FEY;;LION;49;14500;7200;192;2;94;97;8400;;4125;4125;1;12996;25.54;28.44;30,3;BCS1388054;6;14
009752;08.12.2020;16:20:13;Stop          ;04.12.2018;FEY;;LION;49;14500;7200;192;2;94;97;8400;;4124;4124;1;12997;27.74;30.14;31,9;BCS1388054;6;14
009752;07.02.2021;08:46:59;Normalcharge  ;04.12.2018;FEY;;LION;49;14500;7200;192;2;90;93;8400;3000;4088;4087;1;13011;23.44;25.44;29,2;BCS1388054;4;4
009752;07.02.2021;11:52:20;Stop          ;04.12.2018;FEY;;LION;49;14500;7200;224;2;97;100;8400;;4151;4151;1;13011;25.74;26.44;29,7;BCS1388054;4;4
009752;03.03.2021;08:17:21;Normalcharge  ;04.12.2018;FEY;;LION;49;14500;7200;192;2;89;94;8400;3000;4081;4081;1;13011;23.04;22.54;23,5;BCS1388054;3;2
009752;04.03.2021;07:53:39;Stop           ;04.12.2018;FEY;;LION;49;14500;7200;224;2;95;100;8400;;4148;4148;1;13005;26.34;27.94;31,5;BCS1388054;3;2
009752;04.04.2021;11:50:02;Normalcharge  ;04.12.2018;FEY;;LION;49;14500;7200;192;2;58;61;8400;3000;3759;3759;1;13002;24.84;26.04;27,7;BCS1388054;6;14
009752;04.04.2021;11:51:24;Stop          ;04.12.2018;FEY;;LION;49;14500;7200;128;2;58;61;8400;3000;3852;3804;1;12664;24.84;29.64;28,5;BCS1388054;6;14
009752;05.04.2021;09:37:37;Charge to 60% ;04.12.2018;FEY;;LION;49;14500;7200;192;2;58;61;8400;3000;3763;3763;1;13008;24.94;25.64;26,0;BCS1388054;1;7
009752;05.04.2021;10:01:53;Stop          ;04.12.2018;FEY;;LION;49;14500;7200;192;2;57;60;8400;3000;3741;3741;1;13004;25.84;28.54;31,2;BCS1388054;1;7
009752;22.08.2021;11:37:30;Normalcharge  ;04.12.2018;FEY;;LION;49;14500;7200;192;2;51;54;8400;3000;3680;3681;1;12999;21.34;28.64;31,9;BCS1388054;3;18
009752;22.08.2021;11:38:19;Stop           ;04.12.2018;FEY;;LION;49;14500;7200;128;2;51;54;8400;3000;3767;3720;1;12550;21.54;30.64;32,1;BCS1388054;3;18
009752;25.08.2021;08:15:15;Ladung auf 60% ;04.12.2018;FEY;;LION;49;14500;7200;192;2;51;54;8400;3000;3683;3684;1;12997;30.34;31.34;33,4;BCS1388054;3;18
009752;25.08.2021;08:40:44;Stop           ;04.12.2018;FEY;;LION;49;14500;7200;128;2;57;60;8400;3000;3837;3789;1;12995;32.54;40.34;36,1;BCS1388054;3;18
009752;01.11.2021;09:52:00;Normalcharge  ;04.12.2018;FEY;;LION;49;14500;7200;192;2;54;57;8400;3000;3711;3712;1;12993;25.64;26.74;26,3;BCS1388054;5;7
009752;01.11.2021;09:53:40;Stop          ;04.12.2018;FEY;;LION;49;14500;7200;128;2;54;57;8400;3000;3802;3755;1;12584;25.64;30.54;27,3;BCS1388054;5;7
009752;01.11.2021;10:02:19;Normalcharge  ;04.12.2018;FEY;;LION;49;14500;7200;192;2;54;57;8400;3000;3716;3716;1;12989;25.84;28.84;29,5;BCS1388054;5;7
009752;01.11.2021;10:03:11;Stop          ;04.12.2018;FEY;;LION;49;14500;7200;128;2;54;57;8400;3000;3799;3754;1;12581;25.84;30.94;29,3;BCS1388054;5;7
009752;01.11.2021;10:27:35;Normalcharge  ;04.12.2018;FEY;;LION;49;14500;7200;192;2;54;57;8400;3000;3717;3718;1;12997;26.14;27.44;27,8;BCS1388054;5;7
009752;01.11.2021;10:29:14;Stop          ;04.12.2018;FEY;;LION;49;14500;7200;128;2;55;58;8400;3000;3806;3760;1;12588;26.14;31.24;28,6;BCS1388054;5;7
009752;01.11.2021;10:32:33;Charge to 60% ;04.12.2018;FEY;;LION;49;14500;7200;192;2;55;58;8400;3000;3721;3722;1;12994;26.24;29.04;29,9;BCS1388054;5;7
009752;01.11.2021;11:11:47;Stop          ;04.12.2018;FEY;;LION;49;14500;7200;192;2;57;60;8400;3000;3748;3748;1;12995;27.64;30.94;32,5;BCS1388054;5;7
009752;09.02.2022;08:16:53;Normalcharge  ;04.12.2018;FEY;;LION;49;14500;7200;192;3;34;36;8400;3000;3589;3589;1;13007;22.24;21.94;23,1;BCS1388054;1;10
009752;09.02.2022;13:56:48;Stop          ;04.12.2018;FEY;;LION;49;14500;7200;128;3;93;100;8400;3000;4180;4172;1;12965;25.64;27.54;29,9;BCS1388054;1;10
009752;14.03.2022;12:14:36;Normalcharge  ;04.12.2018;FEY;;LION;49;14500;7200;192;3;92;99;8400;3000;4125;4123;1;13002;24.34;25.14;27,7;BCS1388054;3;2
009752;14.03.2022;12:18:51;Stop           ;04.12.2018;FEY;;LION;49;14500;7200;128;3;92;99;8400;3000;4180;4162;1;12967;24.44;28.34;29,5;BCS1388054;3;2
009752;29.03.2022;08:21:11;Normalcharge  ;04.12.2018;FEY;;LION;49;14500;7200;192;3;71;75;8400;3000;3892;3891;1;13001;24.64;26.24;25,8;BCS1388054;1;15
009752;29.03.2022;08:21:52;Stop          ;04.12.2018;FEY;;LION;49;14500;7200;128;3;71;75;8400;3000;3975;3927;1;12688;24.64;28.14;26,0;BCS1388054;1;15
009752;29.03.2022;08:22:01;Normalcharge  ;04.12.2018;FEY;;LION;49;14500;7200;128;3;71;75;8400;3000;3897;3897;1;12998;24.64;28.24;26,1;BCS1388054;1;15
009752;29.03.2022;08:22:51;Stop          ;04.12.2018;FEY;;LION;49;14500;7200;128;3;71;75;8400;3000;3981;3933;1;12689;24.74;29.54;26,6;BCS1388054;1;15
009752;17.05.2022;08:54:20;Normalcharge  ;04.12.2018;FEY;;LION;49;14500;7200;192;3;71;75;8400;3000;3883;3883;1;13007;28.34;29.64;30,8;BCS1388054;4;8
009752;17.05.2022;13:04:14;Stop          ;04.12.2018;FEY;;LION;49;14500;7200;224;3;95;100;8400;;4158;4157;1;13003;32.64;33.04;34,0;BCS1388054;4;8