File: reader/Batterieverzeichnis_new/009750.txt
Serialnumber ; Date ; Time ; Action ; Date of Manufacture ; Manufacturer ; Battery Name ; Device-Chemistry ; Specification-Info ; Design-Capacity [mAh] ; Design-Voltage [mV] ; Battery Status ; Cycle Count ; SOC [%] ; Relativ SOC[%] ; Desired Voltage [mV]; Desired Current [mA]; Cell Voltage 1 [mV] ; Cell Voltage 2 [mV] ; Max_Error [%] ; Busvoltage[mV] ; Battery Temperature [°C] ; Charger Temperature [°C] ; Batterysystem ; Case ; PLace
009750;07.12.2020;04:14:40;Cycle         ;04.12.2018;FEY;;LION;49;14500;7200;192;2;95;97;8400;;4125;4129;1;13020;25.64;27.54;30,3;BCS1388054;7;3
009750;08.12.2020;16:20:20;Stop          ;04.12.2018;FEY;;LION;49;14500;7200;192;2;95;98;8400;;4124;4127;1;13021;27.64;28.94;31,9;BCS1388054;7;3
009750;07.02.2021;08:47:07;Normalcharge  ;04.12.2018;FEY;;LION;49;14500;7200;192;3;72;74;8400;3000;3887;3889;1;12998;23.64;26.44;29,2;BCS1388054;5;7
009750;07.02.2021;11:50:11;Stop          ;04.12.2018;FEY;;LION;49;14500;7200;224;3;98;100;8400;;4163;4168;1;12997;26.24;28.44;30,0;BCS1388054;5;7
009750;03.03.2021;08:17:35;Normalcharge  ;04.12.2018;FEY;;LION;49;14500;7200;192;3;74;77;8400;3000;3912;3914;1;13015;23.14;23.44;23,6;BCS1388054;5;9
009750;03.03.2021;11:26:36;Stop          ;04.12.2018;FEY;;LION;49;14500;7200;224;3;97;100;8400;;4158;4161;1;13010;28.94;29.44;31,5;BCS1388054;5;9
009750;06.04.2021;08:38:50;Normalcharge  ;04.12.2018;FEY;;LION;49;14500;7200;224;3;96;99;8400;;4134;4136;1;13006;20.64;24.14;28,1;BCS1388054;3;16
009750;06.04.2021;08:39:42;Stop           ;04.12.2018;FEY;;LION;49;14500;7200;224;3;96;99;8400;;4134;4136;1;13005;20.74;24.34;28,2;BCS1388054;3;16
009750;08.04.2021;07:58:01;Normalcharge  ;04.12.2018;FEY;;LION;49;14500;7200;224;3;96;99;8400;;4134;4136;1;13006;25.24;24.44;26,4;BCS1388054;3;16
009750;08.04.2021;07:59:40;Stop           ;04.12.2018;FEY;;LION;49;14500;7200;224;3;96;99;8400;;4134;4136;1;13004;25.24;25.14;26,8;BCS1388054;3;16
009750;08.04.2021;10:35:05;Normalcharge  ;04.12.2018;FEY;;LION;49;14500;7200;224;3;96;99;8400;;4133;4136;1;13007;25.54;24.74;28,1;BCS1388054;3;16
009750;08.04.2021;10:36:56;Stop           ;04.12.2018;FEY;;LION;49;14500;7200;224;3;96;99;8400;;4134;4136;1;13003;25.54;25.54;29,0;BCS1388054;3;16
009750;18.04.2021;08:33:50;Normalcharge  ;04.12.2018;FEY;;LION;49;14500;7200;224;3;96;99;8400;;4129;4132;1;13008;26.14;25.84;27,8;BCS1388054;3;16
009750;18.04.2021;08:33:58;Stop           ;04.12.2018;FEY;;LION;49;14500;7200;224;3;96;99;8400;;4129;4132;1;13008;26.14;25.94;27,9;BCS1388054;3;16
009750;04.08.2021;07:24:50;Normalcharge  ;04.12.2018;FEY;;LION;49;14500;7200;192;3;93;96;8400;;4096;4098;1;12998;30.44;30.04;31,6;BCS1388054;3;16
009750;04.08.2021;07:25:37;Stop           ;04.12.2018;FEY;;LION;49;14500;7200;192;3;93;96;8400;;4096;4098;1;12998;30.44;30.34;31,7;BCS1388054;3;16
009750;22.08.2021;11:08:08;Normalcharge  ;04.12.2018;FEY;;LION;49;14500;7200;2768;4;;;8400;3000;3112;3111;1;12997;22.84;28.54;32,1;BCS1388054;5;10
009750;22.08.2021;11:08:41;Stop          ;04.12.2018;FEY;;LION;49;14500;7200;144;4;;;8400;3000;3115;3115;1;12853;22.94;29.34;32,5;BCS1388054;5;10
009750;25.08.2021;08:13:04;Normalcharge  ;04.12.2018;FEY;;LION;49;14500;7200;720;4;;;8400;3000;3118;3116;1;13021;30.34;31.74;32,4;BCS1388054;7;5
009750;25.08.2021;08:13:16;Stop          ;04.12.2018;FEY;;LION;49;14500;7200;720;4;;;8400;3000;3118;3116;1;13010;30.34;31.94;32,5;BCS1388054;7;5
009750;25.08.2021;08:14:41;Charge to 60% ;04.12.2018;FEY;;LION;49;14500;7200;720;4;;;8400;3000;3118;3116;1;13026;30.34;31.94;33,0;BCS1388054;7;5
009750;25.08.2021;08:37:46;Stop          ;04.12.2018;FEY;;LION;49;14500;7200;144;4;4;4;8400;3000;3469;3420;1;12751;31.74;36.94;36,1;BCS1388054;7;5
009750;25.08.2021;08:38:03;Charge to 60% ;04.12.2018;FEY;;LION;49;14500;7200;144;4;4;4;8400;3000;3375;3377;1;13024;31.74;36.14;36,1;BCS1388054;7;5
009750;25.08.2021;13:26:36;Stop          ;04.12.2018;FEY;;LION;49;14500;7200;192;4;56;60;8400;3000;3768;3767;1;13024;33.04;33.74;36,4;BCS1388054;7;5
009750;01.11.2021;09:51:56;Normalcharge  ;04.12.2018;FEY;;LION;49;14500;7200;192;4;55;57;8400;3000;3718;3719;1;13004;25.84;26.24;26,3;BCS1388054;6;9
009750;01.11.2021;09:53:46;Stop          ;04.12.2018;FEY;;LION;49;14500;7200;128;4;55;58;8400;3000;3813;3765;1;12620;25.94;29.94;27,3;BCS1388054;6;9
009750;01.11.2021;10:02:24;Normalcharge  ;04.12.2018;FEY;;LION;49;14500;7200;192;4;55;58;8400;3000;3724;3724;1;12997;26.04;28.24;29,5;BCS1388054;6;9
009750;01.11.2021;10:03:07;Stop          ;04.12.2018;FEY;;LION;49;14500;7200;128;4;55;58;8400;3000;3810;3762;1;12621;26.04;29.64;29,3;BCS1388054;6;9
009750;01.11.2021;10:27:30;Normalcharge  ;04.12.2018;FEY;;LION;49;14500;7200;192;4;55;58;8400;3000;3725;3725;1;13000;26.34;26.94;27,8;BCS1388054;6;9
009750;01.11.2021;10:29:18;Stop          ;04.12.2018;FEY;;LION;49;14500;7200;128;4;55;58;8400;3000;3822;3770;1;12623;26.34;30.74;28,6;BCS1388054;6;9
009750;01.11.2021;14:25:59;Stop          ;04.12.2018;FEY;;LION;49;14500;7200;192;4;57;60;8400;3000;3755;3755;1;12997;28.44;29.84;32,6;BCS1388054;6;9
009750;07.02.2022;08:50:52;Normalcharge  ;04.12.2018;FEY;;LION;49;14500;7200;192;4;55;57;8400;3000;3711;3712;1;13015;22.24;22.64;25,0;BCS1388054;5;16
009750;07.02.2022;13:22:36;Stop          ;04.12.2018;FEY;;LION;49;14500;7200;224;4;96;100;8400;;4161;4162;1;13009;26.74;27.14;28,5;BCS1388054;5;16