File: reader/Batterieverzeichnis_new/009725.txt
Serialnumber ; Date ; Time ; Action ; Date of Manufacture ; Manufacturer ; Battery Name ; Device-Chemistry ; Specification-Info ; Design-Capacity [mAh] ; Design-Voltage [mV] ; Battery Status ; Cycle Count ; SOC [%] ; Relativ SOC[%] ; Desired Voltage [mV]; Desired Current [mA]; Cell Voltage 1 [mV] ; Cell Voltage 2 [mV] ; Max_Error [%] ; Busvoltage[mV] ; Battery Temperature [°C] ; Charger Temperature [°C] ; Batterysystem ; Case ; PLace
009725;12.01.2021;04:17:22;Charge to 90% ;04.12.2018;FEY;;LION;49;14500;7200;192;2;91;93;8400;3000;4085;4084;1;13008;23.14;24.14;23,5;BCS1388054;2;2
009725;12.01.2021;04:54:21;Stop          ;04.12.2018;FEY;;LION;49;14500;7200;192;2;89;90;8400;3000;4062;4062;1;13000;25.94;31.44;31,9;BCS1388054;2;2
009725;12.01.2021;05:21:40;Cycle         ;04.12.2018;FEY;;LION;49;14500;7200;192;2;89;90;8400;3000;4064;4063;1;13002;26.74;29.34;30,6;BCS1388054;2;2
009725;13.01.2021;08:20:19;Stop          ;04.12.2018;FEY;;LION;49;14500;7200;224;3;97;100;8400;;4156;4156;1;13002;27.14;29.14;30,8;BCS1388054;2;2
009725;22.02.2021;17:31:46;Normalcharge  ;04.12.2018;FEY;;LION;49;14500;7200;192;4;57;59;8400;3000;3735;3737;1;13001;26.24;26.24;31,6;BCS1388054;1;17
009725;22.02.2021;23:06:28;Stop          ;04.12.2018;FEY;;LION;49;14500;7200;224;4;97;100;8400;;4155;4154;1;13002;26.44;27.54;30,6;BCS1388054;1;17
009725;06.04.2021;08:39:10;Normalcharge  ;04.12.2018;FEY;;LION;49;14500;7200;224;4;96;99;8400;;4128;4127;1;13015;21.54;26.24;28,1;BCS1388054;5;5
009725;06.04.2021;08:39:58;Stop          ;04.12.2018;FEY;;LION;49;14500;7200;224;4;96;99;8400;;4128;4127;1;13014;21.64;26.44;28,4;BCS1388054;5;5
009725;08.04.2021;07:58:30;Normalcharge  ;04.12.2018;FEY;;LION;49;14500;7200;224;4;96;99;8400;;4129;4128;1;13020;25.24;26.34;26,4;BCS1388054;5;5
009725;08.04.2021;07:59:28;Stop          ;04.12.2018;FEY;;LION;49;14500;7200;224;4;96;99;8400;;4128;4127;1;13018;25.24;26.74;26,7;BCS1388054;5;5
009725;08.04.2021;10:36:12;Normalcharge  ;04.12.2018;FEY;;LION;49;14500;7200;224;4;96;99;8400;;4128;4127;1;13014;25.44;27.14;28,6;BCS1388054;5;5
009725;08.04.2021;10:37:06;Stop          ;04.12.2018;FEY;;LION;49;14500;7200;224;4;96;99;8400;;4128;4127;1;13013;25.44;27.34;29,0;BCS1388054;5;5
009725;18.04.2021;08:34:16;Normalcharge  ;04.12.2018;FEY;;LION;49;14500;7200;224;4;95;99;8400;;4124;4123;1;13014;26.14;27.94;28,1;BCS1388054;5;5
009725;18.04.2021;08:34:27;Stop          ;04.12.2018;FEY;;LION;49;14500;7200;224;4;95;99;8400;;4125;4124;1;13013;26.14;27.94;28,2;BCS1388054;5;5
009725;04.08.2021;07:24:41;Normalcharge  ;04.12.2018;FEY;;LION;49;14500;7200;192;4;93;96;8400;;4092;4091;1;13015;30.24;31.84;31,5;BCS1388054;5;5
009725;04.08.2021;07:25:23;Stop          ;04.12.2018;FEY;;LION;49;14500;7200;192;4;93;96;8400;;4092;4091;1;13015;30.24;32.14;31,6;BCS1388054;5;5
009725;22.08.2021;11:08:08;Normalcharge  ;04.12.2018;FEY;;LION;49;14500;7200;192;4;93;96;8400;;4088;4087;1;13012;30.04;30.84;32,1;BCS1388054;5;5
009725;22.08.2021;11:08:41;Stop          ;04.12.2018;FEY;;LION;49;14500;7200;192;4;93;96;8400;;4088;4087;1;12839;30.04;31.04;32,5;BCS1388054;5;5
009725;12.10.2021;12:15:28;Normalcharge  ;04.12.2018;FEY;;LION;49;14500;7200;192;4;79;81;8400;3000;3944;3943;1;13006;23.44;26.54;27,9;BCS1388054;2;16
009725;12.10.2021;12:15:46;Stop          ;04.12.2018;FEY;;LION;49;14500;7200;192;4;79;81;8400;3000;3945;3943;1;13000;23.44;27.14;27,9;BCS1388054;2;16
009725;14.10.2021;12:40:18;Normalcharge  ;04.12.2018;FEY;;LION;49;14500;7200;192;4;79;81;8400;3000;3944;3943;1;12996;23.34;26.44;28,1;BCS1388054;6;10
009725;14.10.2021;12:41:59;Stop          ;04.12.2018;FEY;;LION;49;14500;7200;128;4;79;82;8400;3000;4043;3995;1;12628;23.54;30.24;28,5;BCS1388054;6;10