File: reader/Batterieverzeichnis_new/009722.txt
Serialnumber ; Date ; Time ; Action ; Date of Manufacture ; Manufacturer ; Battery Name ; Device-Chemistry ; Specification-Info ; Design-Capacity [mAh] ; Design-Voltage [mV] ; Battery Status ; Cycle Count ; SOC [%] ; Relativ SOC[%] ; Desired Voltage [mV]; Desired Current [mA]; Cell Voltage 1 [mV] ; Cell Voltage 2 [mV] ; Max_Error [%] ; Busvoltage[mV] ; Battery Temperature [°C] ; Charger Temperature [°C] ; Batterysystem ; Case ; PLace
009722;07.12.2020;04:14:28;Cycle         ;04.12.2018;FEY;;LION;49;14500;7200;192;2;97;98;8400;;4144;4145;1;12992;25.74;28.84;30,3;BCS1388054;4;2
009722;08.12.2020;16:19:56;Stop          ;04.12.2018;FEY;;LION;49;14500;7200;192;2;97;98;8400;;4142;4143;1;12991;27.94;30.34;31,9;BCS1388054;4;2
009722;12.01.2021;04:17:47;Charge to 90% ;04.12.2018;FEY;;LION;49;14500;7200;192;2;96;97;8400;;4127;4128;1;13024;23.14;23.84;23,8;BCS1388054;7;12
009722;12.01.2021;04:57:20;Stop          ;04.12.2018;FEY;;LION;49;14500;7200;192;2;90;90;8400;3000;4061;4061;1;13019;27.24;27.74;31,5;BCS1388054;7;12
009722;12.01.2021;05:22:01;Cycle         ;04.12.2018;FEY;;LION;49;14500;7200;192;2;90;90;8400;3000;4065;4065;1;13019;26.74;26.54;30,4;BCS1388054;7;12
009722;13.01.2021;08:19:29;Stop          ;04.12.2018;FEY;;LION;49;14500;7200;224;4;97;100;8400;;4155;4156;1;13019;26.34;26.94;30,7;BCS1388054;7;12
009722;21.02.2021;13:43:19;Normalcharge  ;04.12.2018;FEY;;LION;49;14500;7200;192;4;47;49;8400;3000;3648;3649;1;12995;23.74;25.04;27,5;BCS1388054;1;4
009722;22.02.2021;17:08:49;Stop          ;04.12.2018;FEY;;LION;49;14500;7200;224;4;97;100;8400;;4147;4148;1;12995;26.24;26.64;30,0;BCS1388054;1;4
009722;06.04.2021;08:39:16;Normalcharge  ;04.12.2018;FEY;;LION;49;14500;7200;224;4;96;99;8400;;4127;4127;1;13005;21.44;25.64;28,1;BCS1388054;6;9
009722;06.04.2021;08:40:03;Stop          ;04.12.2018;FEY;;LION;49;14500;7200;224;4;96;99;8400;;4126;4127;1;12984;21.54;25.74;28,5;BCS1388054;6;9
009722;08.04.2021;07:58:44;Normalcharge  ;04.12.2018;FEY;;LION;49;14500;7200;224;4;96;99;8400;;4126;4127;1;13009;25.34;24.54;26,4;BCS1388054;6;9
009722;08.04.2021;07:59:23;Stop          ;04.12.2018;FEY;;LION;49;14500;7200;224;4;96;99;8400;;4126;4126;1;13009;25.34;25.74;26,7;BCS1388054;6;9
009722;08.04.2021;10:36:16;Normalcharge  ;04.12.2018;FEY;;LION;49;14500;7200;224;4;96;99;8400;;4126;4127;1;13007;25.54;26.34;28,6;BCS1388054;6;9
009722;08.04.2021;10:37:11;Stop          ;04.12.2018;FEY;;LION;49;14500;7200;224;4;96;99;8400;;4126;4127;1;12987;25.54;26.74;29,2;BCS1388054;6;9
009722;18.04.2021;08:34:33;Normalcharge  ;04.12.2018;FEY;;LION;49;14500;7200;224;4;96;99;8400;;4123;4123;1;13005;26.24;27.24;28,2;BCS1388054;6;9
009722;18.04.2021;08:34:41;Stop          ;04.12.2018;FEY;;LION;49;14500;7200;224;4;96;99;8400;;4122;4123;1;13004;26.24;27.24;28,2;BCS1388054;6;9
009722;04.08.2021;07:24:35;Normalcharge  ;04.12.2018;FEY;;LION;49;14500;7200;192;4;94;96;8400;;4091;4091;1;13002;30.24;30.74;31,5;BCS1388054;6;9
009722;04.08.2021;07:25:17;Stop          ;04.12.2018;FEY;;LION;49;14500;7200;192;4;94;96;8400;;4091;4091;1;12985;30.24;31.04;31,6;BCS1388054;6;9
009722;22.08.2021;11:08:00;Normalcharge  ;04.12.2018;FEY;;LION;49;14500;7200;192;4;94;96;8400;;4086;4086;1;12999;22.44;28.64;32,1;BCS1388054;3;16
009722;22.08.2021;11:08:34;Stop           ;04.12.2018;FEY;;LION;49;14500;7200;192;4;94;96;8400;;4086;4086;1;12702;22.54;28.64;32,4;BCS1388054;3;16
009722;14.10.2021;12:39:52;Normalcharge  ;04.12.2018;FEY;;LION;49;14500;7200;192;5;68;70;8400;3000;3848;3849;1;13001;24.84;25.94;27,9;BCS1388054;1;17
009722;14.10.2021;12:41:15;Stop          ;04.12.2018;FEY;;LION;49;14500;7200;128;5;68;70;8400;3000;3942;3893;1;12452;24.94;29.44;28,2;BCS1388054;1;17
009722;07.02.2022;08:51:46;Normalcharge  ;04.12.2018;FEY;;LION;49;14500;7200;192;5;68;70;8400;3000;3822;3822;1;13007;22.34;23.64;25,6;BCS1388054;2;4
009722;07.02.2022;13:15:56;Stop          ;04.12.2018;FEY;;LION;49;14500;7200;224;5;97;100;8400;;4153;4153;1;13001;26.04;27.44;31,1;BCS1388054;2;4
009722;14.03.2022;12:14:39;Normalcharge  ;04.12.2018;FEY;;LION;49;14500;7200;224;5;96;99;8400;;4129;4129;1;13004;24.54;25.74;27,7;BCS1388054;2;8
009722;14.03.2022;12:15:13;Stop          ;04.12.2018;FEY;;LION;49;14500;7200;224;5;96;99;8400;;4129;4129;1;13002;24.54;26.04;27,9;BCS1388054;2;8
009722;14.03.2022;12:17:51;Normalcharge  ;04.12.2018;FEY;;LION;49;14500;7200;224;5;96;99;8400;;4129;4129;1;13001;24.54;26.44;29,2;BCS1388054;2;8
009722;14.03.2022;12:18:32;Stop          ;04.12.2018;FEY;;LION;49;14500;7200;224;5;96;99;8400;;4129;4129;1;13000;24.54;26.44;29,5;BCS1388054;2;8
009722;14.03.2022;12:19:02;Normalcharge  ;04.12.2018;FEY;;LION;49;14500;7200;224;5;96;99;8400;;4129;4129;1;13001;24.54;26.54;29,5;BCS1388054;2;8
009722;14.03.2022;12:19:06;Stop          ;04.12.2018;FEY;;LION;49;14500;7200;224;5;96;99;8400;;4129;4129;1;13000;24.64;26.54;29,6;BCS1388054;2;8