File: reader/Batterieverzeichnis_new/009766.txt
Serialnumber ; Date ; Time ; Action ; Date of Manufacture ; Manufacturer ; Battery Name ; Device-Chemistry ; Specification-Info ; Design-Capacity [mAh] ; Design-Voltage [mV] ; Battery Status ; Cycle Count ; SOC [%] ; Relativ SOC[%] ; Desired Voltage [mV]; Desired Current [mA]; Cell Voltage 1 [mV] ; Cell Voltage 2 [mV] ; Max_Error [%] ; Busvoltage[mV] ; Battery Temperature [°C] ; Charger Temperature [°C] ; Batterysystem ; Case ; PLace
009766;07.12.2020;04:14:32;Cycle         ;04.12.2018;FEY;;LION;49;14500;7200;192;3;97;98;8400;;4145;4145;1;13008;25.44;27.64;30,3;BCS1388054;5;16
009766;08.12.2020;16:20:01;Stop          ;04.12.2018;FEY;;LION;49;14500;7200;192;3;97;98;8400;;4142;4143;1;13008;27.44;29.24;31,7;BCS1388054;5;16
009766;07.02.2021;08:47:00;Normalcharge  ;04.12.2018;FEY;;LION;49;14500;7200;192;3;91;92;8400;3000;4079;4080;1;12990;23.24;24.84;29,2;BCS1388054;4;11
009766;07.02.2021;11:52:20;Stop          ;04.12.2018;FEY;;LION;49;14500;7200;224;3;99;100;8400;;4149;4150;1;12991;25.54;25.84;29,7;BCS1388054;4;11
009766;03.03.2021;08:17:17;Normalcharge  ;04.12.2018;FEY;;LION;49;14500;7200;192;3;92;95;8400;3000;4087;4087;1;13023;22.84;23.24;23,5;BCS1388054;2;6
009766;04.03.2021;07:53:46;Stop          ;04.12.2018;FEY;;LION;49;14500;7200;224;3;97;100;8400;;4146;4147;1;13015;25.94;26.64;31,6;BCS1388054;2;6
009766;04.04.2021;11:49:55;Normalcharge  ;04.12.2018;FEY;;LION;49;14500;7200;224;3;96;99;8400;;4132;4133;1;13028;24.74;25.24;27,5;BCS1388054;7;18
009766;04.04.2021;11:51:17;Stop          ;04.12.2018;FEY;;LION;49;14500;7200;224;3;96;99;8400;;4132;4132;1;12745;24.74;25.64;28,4;BCS1388054;7;18
009766;28.12.2021;09:01:33;Normalcharge  ;04.12.2018;FEY;;LION;49;14500;7200;192;4;53;56;8400;3000;3722;3722;1;13006;23.34;23.84;25,4;BCS1388054;5;1
009766;28.12.2021;09:02:46;Stop          ;04.12.2018;FEY;;LION;49;14500;7200;128;4;54;57;8400;3000;3811;3765;1;12676;23.44;26.64;26,0;BCS1388054;5;1
009766;07.02.2022;08:50:37;Normalcharge  ;04.12.2018;FEY;;LION;49;14500;7200;192;4;53;57;8400;3000;3712;3713;1;13033;22.04;21.64;25,0;BCS1388054;7;7
009766;07.02.2022;14:21:07;Stop          ;04.12.2018;FEY;;LION;49;14500;7200;224;4;97;100;8400;;4153;4154;1;13025;25.14;26.14;28,9;BCS1388054;7;7