File: reader/Batterieverzeichnis_new/009754.txt
Serialnumber ; Date ; Time ; Action ; Date of Manufacture ; Manufacturer ; Battery Name ; Device-Chemistry ; Specification-Info ; Design-Capacity [mAh] ; Design-Voltage [mV] ; Battery Status ; Cycle Count ; SOC [%] ; Relativ SOC[%] ; Desired Voltage [mV]; Desired Current [mA]; Cell Voltage 1 [mV] ; Cell Voltage 2 [mV] ; Max_Error [%] ; Busvoltage[mV] ; Battery Temperature [°C] ; Charger Temperature [°C] ; Batterysystem ; Case ; PLace
009754;01.12.2020;07:00:16;Cycle         ;04.12.2018;FEY;;LION;49;14500;7200;16576;2;98;100;;;4165;4166;1;12996;25.64;25.64;26,7;BCS1388054;1;2
009754;01.12.2020;11:17:17;Stop          ;04.12.2018;FEY;;LION;49;14500;7200;16576;2;98;100;;;4165;4166;1;12991;26.94;28.84;28,8;BCS1388054;1;2
009754;07.02.2021;08:46:54;Normalcharge  ;04.12.2018;FEY;;LION;49;14500;7200;16576;2;93;95;;;4100;4100;1;13009;23.74;26.44;29,2;BCS1388054;3;13
009754;07.02.2021;11:52:16;Stop           ;04.12.2018;FEY;;LION;49;14500;7200;16576;2;93;95;;;4100;4100;1;13010;26.04;28.24;29,7;BCS1388054;3;13
009754;03.03.2021;08:17:29;Normalcharge  ;04.12.2018;FEY;;LION;49;14500;7200;192;2;84;86;8400;3000;4006;4007;1;13021;23.34;23.94;23,5;BCS1388054;4;16
009754;03.03.2021;10:32:46;Stop          ;04.12.2018;FEY;;LION;49;14500;7200;224;2;98;100;8400;;4157;4158;1;13016;28.44;29.64;32,0;BCS1388054;4;16
009754;04.04.2021;11:50:10;Normalcharge  ;04.12.2018;FEY;;LION;49;14500;7200;192;3;51;53;8400;3000;3680;3680;1;13013;25.04;26.94;27,8;BCS1388054;5;15
009754;04.04.2021;11:51:30;Stop          ;04.12.2018;FEY;;LION;49;14500;7200;128;3;51;54;8400;3000;3770;3720;1;12671;25.14;30.04;28,5;BCS1388054;5;15
009754;05.04.2021;09:38:11;Charge to 60% ;04.12.2018;FEY;;LION;49;14500;7200;192;3;51;54;8400;3000;3682;3682;1;13007;25.24;25.64;26,3;BCS1388054;4;17
009754;05.04.2021;10:13:52;Stop          ;04.12.2018;FEY;;LION;49;14500;7200;192;3;57;60;8400;3000;3751;3753;1;13003;27.74;29.84;32,1;BCS1388054;4;17
009754;22.08.2021;11:37:30;Normalcharge  ;04.12.2018;FEY;;LION;49;14500;7200;192;3;53;55;8400;3000;3695;3695;1;13000;21.84;29.34;31,9;BCS1388054;3;13
009754;22.08.2021;11:38:19;Stop           ;04.12.2018;FEY;;LION;49;14500;7200;128;3;53;55;8400;3000;3779;3733;1;12570;22.04;31.54;32,1;BCS1388054;3;13
009754;25.08.2021;08:15:15;Ladung auf 60% ;04.12.2018;FEY;;LION;49;14500;7200;192;3;53;55;8400;3000;3697;3697;1;12997;30.64;32.74;33,4;BCS1388054;3;13
009754;25.08.2021;08:40:44;Stop           ;04.12.2018;FEY;;LION;49;14500;7200;192;3;57;60;8400;3000;3751;3753;1;12997;32.64;36.74;36,1;BCS1388054;3;13