File: reader/Batterieverzeichnis_new/009787.txt
Serialnumber ; Date ; Time ; Action ; Date of Manufacture ; Manufacturer ; Battery Name ; Device-Chemistry ; Specification-Info ; Design-Capacity [mAh] ; Design-Voltage [mV] ; Battery Status ; Cycle Count ; SOC [%] ; Relativ SOC[%] ; Desired Voltage [mV]; Desired Current [mA]; Cell Voltage 1 [mV] ; Cell Voltage 2 [mV] ; Max_Error [%] ; Busvoltage[mV] ; Battery Temperature [°C] ; Charger Temperature [°C] ; Batterysystem ; Case ; PLace
009787;07.12.2020;04:14:17;Cycle         ;04.12.2018;FEY;;LION;49;14500;7200;224;3;99;99;8400;;4129;4129;1;13007;25.54;26.74;30,3;BCS1388054;1;13
009787;08.12.2020;16:19:38;Stop          ;04.12.2018;FEY;;LION;49;14500;7200;224;4;97;100;8400;;4152;4151;1;13008;27.44;28.14;31,9;BCS1388054;1;13
009787;03.03.2021;08:17:17;Normalcharge  ;04.12.2018;FEY;;LION;49;14500;7200;192;4;93;96;8400;;4096;4095;1;13014;23.04;23.84;23,5;BCS1388054;2;3
009787;04.03.2021;07:53:45;Stop          ;04.12.2018;FEY;;LION;49;14500;7200;192;4;93;96;8400;;4095;4094;1;13006;26.34;28.84;31,6;BCS1388054;2;3
009787;04.04.2021;11:50:10;Normalcharge  ;04.12.2018;FEY;;LION;49;14500;7200;192;5;17;18;8400;3000;3433;3430;1;13017;24.74;25.94;27,8;BCS1388054;5;18
009787;04.04.2021;11:51:30;Stop          ;04.12.2018;FEY;;LION;49;14500;7200;128;5;17;18;8400;3000;3530;3481;1;12665;24.84;29.14;28,5;BCS1388054;5;18
009787;05.04.2021;09:38:17;Charge to 60% ;04.12.2018;FEY;;LION;49;14500;7200;192;5;17;18;8400;3000;3437;3434;1;13012;24.94;26.14;26,4;BCS1388054;5;16
009787;05.04.2021;10:34:50;Charge to 60% ;04.12.2018;FEY;;LION;49;14500;7200;128;5;29;30;8400;3000;3653;3603;1;12910;28.44;34.04;32,4;BCS1388054;5;16
009787;05.04.2021;13:16:09;Stop          ;04.12.2018;FEY;;LION;49;14500;7200;192;5;58;60;8400;3000;3770;3764;1;13007;29.04;29.64;32,2;BCS1388054;5;16
009787;22.08.2021;11:37:30;Normalcharge  ;04.12.2018;FEY;;LION;49;14500;7200;192;5;54;56;8400;3000;3702;3702;1;12996;21.44;27.84;31,9;BCS1388054;3;2
009787;22.08.2021;11:38:19;Stop           ;04.12.2018;FEY;;LION;49;14500;7200;128;5;54;56;8400;3000;3790;3742;1;12578;21.64;30.14;32,1;BCS1388054;3;2
009787;25.08.2021;08:15:15;Ladung auf 60% ;04.12.2018;FEY;;LION;49;14500;7200;192;5;54;56;8400;3000;3705;3704;1;12994;30.34;31.94;33,4;BCS1388054;3;2
009787;25.08.2021;08:40:44;Stop           ;04.12.2018;FEY;;LION;49;14500;7200;192;5;58;60;8400;3000;3763;3760;1;12994;31.94;34.54;36,1;BCS1388054;3;2
009787;01.11.2021;09:52:01;Normalcharge  ;04.12.2018;FEY;;LION;49;14500;7200;192;5;56;57;8400;3000;3721;3720;1;13019;25.64;26.14;26,3;BCS1388054;5;18
009787;01.11.2021;09:53:41;Stop          ;04.12.2018;FEY;;LION;49;14500;7200;128;5;56;58;8400;3000;3815;3768;1;12582;25.74;30.14;27,3;BCS1388054;5;18
009787;01.11.2021;10:02:19;Normalcharge  ;04.12.2018;FEY;;LION;49;14500;7200;192;5;56;58;8400;3000;3726;3725;1;13012;25.94;27.64;29,5;BCS1388054;5;18
009787;01.11.2021;10:03:11;Stop          ;04.12.2018;FEY;;LION;49;14500;7200;128;5;56;58;8400;3000;3812;3765;1;12579;25.94;29.84;29,3;BCS1388054;5;18
009787;01.11.2021;10:27:35;Normalcharge  ;04.12.2018;FEY;;LION;49;14500;7200;192;5;56;58;8400;3000;3728;3727;1;13016;26.14;26.94;27,8;BCS1388054;5;18
009787;01.11.2021;10:29:14;Stop          ;04.12.2018;FEY;;LION;49;14500;7200;128;5;56;58;8400;3000;3822;3773;1;12577;26.24;30.94;28,6;BCS1388054;5;18
009787;01.11.2021;10:32:33;Charge to 60% ;04.12.2018;FEY;;LION;49;14500;7200;192;5;56;58;8400;3000;3733;3732;1;13018;26.24;28.34;29,9;BCS1388054;5;18
009787;01.11.2021;11:11:47;Stop          ;04.12.2018;FEY;;LION;49;14500;7200;192;5;58;60;8400;3000;3759;3757;1;13018;27.64;29.54;32,5;BCS1388054;5;18
009787;09.02.2022;08:16:53;Normalcharge  ;04.12.2018;FEY;;LION;49;14500;7200;192;5;53;54;8400;3000;3685;3684;1;12998;22.24;22.24;23,1;BCS1388054;1;11
009787;09.02.2022;13:56:48;Stop          ;04.12.2018;FEY;;LION;49;14500;7200;224;5;98;100;8400;;4155;4157;1;12958;24.94;25.14;29,9;BCS1388054;1;11
009787;14.03.2022;12:14:36;Normalcharge  ;04.12.2018;FEY;;LION;49;14500;7200;224;5;96;99;8400;;4129;4130;1;13003;24.34;25.74;27,7;BCS1388054;3;1
009787;14.03.2022;12:18:51;Stop           ;04.12.2018;FEY;;LION;49;14500;7200;224;5;96;99;8400;;4130;4130;1;12970;24.44;26.74;29,5;BCS1388054;3;1