File: reader/Batterieverzeichnis_new/009729.txt
Serialnumber ; Date ; Time ; Action ; Date of Manufacture ; Manufacturer ; Battery Name ; Device-Chemistry ; Specification-Info ; Design-Capacity [mAh] ; Design-Voltage [mV] ; Battery Status ; Cycle Count ; SOC [%] ; Relativ SOC[%] ; Desired Voltage [mV]; Desired Current [mA]; Cell Voltage 1 [mV] ; Cell Voltage 2 [mV] ; Max_Error [%] ; Busvoltage[mV] ; Battery Temperature [°C] ; Charger Temperature [°C] ; Batterysystem ; Case ; PLace
009729;07.12.2020;04:14:17;Cycle         ;04.12.2018;FEY;;LION;49;14500;7200;16576;2;97;100;;;4155;4156;1;12990;25.94;27.74;30,3;BCS1388054;1;9
009729;08.12.2020;16:19:38;Stop          ;04.12.2018;FEY;;LION;49;14500;7200;16576;2;97;100;;;4152;4153;1;12989;27.74;28.94;31,9;BCS1388054;1;9
009729;12.01.2021;04:17:47;Charge to 90% ;04.12.2018;FEY;;LION;49;14500;7200;16576;2;96;98;;;4137;4138;1;13020;23.34;22.74;23,8;BCS1388054;7;15
009729;12.01.2021;04:57:20;Stop          ;04.12.2018;FEY;;LION;49;14500;7200;192;2;89;90;8400;3000;4042;4043;1;13016;26.94;31.54;31,5;BCS1388054;7;15
009729;12.01.2021;05:22:01;Cycle         ;04.12.2018;FEY;;LION;49;14500;7200;192;2;89;90;8400;3000;4056;4057;1;13016;27.04;27.14;30,4;BCS1388054;7;15
009729;13.01.2021;08:19:29;Stop          ;04.12.2018;FEY;;LION;49;14500;7200;224;3;97;100;8400;;4155;4158;1;13016;26.94;27.04;30,7;BCS1388054;7;15
009729;21.02.2021;13:44:56;Normalcharge  ;04.12.2018;FEY;;LION;49;14500;7200;192;3;93;96;8400;3000;4096;4097;1;13013;23.14;23.24;27,7;BCS1388054;5;2
009729;21.02.2021;19:31:36;Stop          ;04.12.2018;FEY;;LION;49;14500;7200;224;3;97;100;8400;;4149;4153;1;13009;27.34;29.24;30,6;BCS1388054;5;2
009729;06.04.2021;08:39:03;Normalcharge  ;04.12.2018;FEY;;LION;49;14500;7200;224;3;96;99;8400;;4128;4131;1;13003;21.04;24.84;28,1;BCS1388054;4;15
009729;06.04.2021;08:39:53;Stop          ;04.12.2018;FEY;;LION;49;14500;7200;224;3;96;99;8400;;4128;4131;1;13002;21.04;25.14;28,4;BCS1388054;4;15
009729;08.04.2021;07:58:12;Normalcharge  ;04.12.2018;FEY;;LION;49;14500;7200;224;3;95;99;8400;;4128;4130;1;13007;25.54;17.74;26,3;BCS1388054;4;15
009729;08.04.2021;07:59:34;Stop          ;04.12.2018;FEY;;LION;49;14500;7200;224;3;95;99;8400;;4128;4130;1;12989;25.54;25.64;26,7;BCS1388054;4;15
009729;08.04.2021;10:36:07;Normalcharge  ;04.12.2018;FEY;;LION;49;14500;7200;224;3;95;99;8400;;4128;4130;1;13004;25.74;25.74;28,5;BCS1388054;4;15
009729;08.04.2021;10:37:03;Stop          ;04.12.2018;FEY;;LION;49;14500;7200;224;3;95;99;8400;;4128;4130;1;12981;25.74;26.24;29,0;BCS1388054;4;15
009729;18.04.2021;08:34:04;Normalcharge  ;04.12.2018;FEY;;LION;49;14500;7200;224;3;95;99;8400;;4124;4126;1;13004;26.44;26.64;27,9;BCS1388054;4;15
009729;18.04.2021;08:34:10;Stop          ;04.12.2018;FEY;;LION;49;14500;7200;224;3;95;99;8400;;4124;4126;1;13003;26.44;26.64;28,1;BCS1388054;4;15
009729;04.08.2021;07:24:46;Normalcharge  ;04.12.2018;FEY;;LION;49;14500;7200;192;3;93;96;8400;;4093;4094;1;13000;30.64;30.64;31,5;BCS1388054;4;15
009729;04.08.2021;07:25:30;Stop          ;04.12.2018;FEY;;LION;49;14500;7200;192;3;93;96;8400;;4093;4094;1;12977;30.64;30.94;31,7;BCS1388054;4;15
009729;22.08.2021;11:37:13;Normalcharge  ;04.12.2018;FEY;;LION;49;14500;7200;192;3;93;96;8400;;4089;4091;1;13031;22.74;28.74;31,9;BCS1388054;7;14
009729;22.08.2021;11:37:48;Stop          ;04.12.2018;FEY;;LION;49;14500;7200;192;3;93;96;8400;;4089;4091;1;13004;22.84;28.94;31,9;BCS1388054;7;14