File: reader/Batterieverzeichnis_new/009780.txt
Serialnumber ; Date ; Time ; Action ; Date of Manufacture ; Manufacturer ; Battery Name ; Device-Chemistry ; Specification-Info ; Design-Capacity [mAh] ; Design-Voltage [mV] ; Battery Status ; Cycle Count ; SOC [%] ; Relativ SOC[%] ; Desired Voltage [mV]; Desired Current [mA]; Cell Voltage 1 [mV] ; Cell Voltage 2 [mV] ; Max_Error [%] ; Busvoltage[mV] ; Battery Temperature [°C] ; Charger Temperature [°C] ; Batterysystem ; Case ; PLace
009780;30.11.2020;09:42:55;Stop          ;04.12.2018;FEY;;LION;49;14500;7200;16576;2;98;99;;;4153;4155;1;13024;27.44;29.44;31,7;BCS1388054;7;2
009780;12.01.2021;04:17:28;Ladung auf 90% ;04.12.2018;FEY;;LION;49;14500;7200;16576;2;97;97;;;4133;4134;1;13014;22.84;23.44;23,6;BCS1388054;3;15
009780;12.01.2021;04:57:30;Stop           ;04.12.2018;FEY;;LION;49;14500;7200;192;2;90;90;8400;3000;4060;4061;1;13009;26.64;30.74;31,5;BCS1388054;3;15
009780;12.01.2021;05:21:45;Cycle          ;04.12.2018;FEY;;LION;49;14500;7200;192;2;90;90;8400;3000;4065;4066;1;13010;26.84;28.54;30,4;BCS1388054;3;15
009780;13.01.2021;08:23:25;Stop           ;04.12.2018;FEY;;LION;49;14500;7200;224;4;96;100;8400;;4155;4157;1;13010;27.04;28.44;31,4;BCS1388054;3;15
009780;21.02.2021;13:43:19;Normalcharge  ;04.12.2018;FEY;;LION;49;14500;7200;192;4;46;48;8400;3000;3640;3641;1;12995;23.44;26.14;27,5;BCS1388054;1;14
009780;22.02.2021;17:08:49;Stop          ;04.12.2018;FEY;;LION;49;14500;7200;224;4;97;100;8400;;4148;4148;1;12994;25.94;28.24;30,0;BCS1388054;1;14
009780;06.04.2021;08:38:50;Normalcharge  ;04.12.2018;FEY;;LION;49;14500;7200;224;4;96;99;8400;;4128;4128;1;13010;20.74;24.44;28,1;BCS1388054;3;2
009780;06.04.2021;08:39:42;Stop           ;04.12.2018;FEY;;LION;49;14500;7200;224;4;96;99;8400;;4128;4128;1;13009;20.84;25.04;28,2;BCS1388054;3;2
009780;08.04.2021;07:58:01;Normalcharge  ;04.12.2018;FEY;;LION;49;14500;7200;224;4;96;99;8400;;4127;4127;1;13011;25.04;24.64;26,4;BCS1388054;3;2
009780;08.04.2021;07:59:40;Stop           ;04.12.2018;FEY;;LION;49;14500;7200;224;4;96;99;8400;;4127;4127;1;13009;25.04;25.84;26,8;BCS1388054;3;2
009780;08.04.2021;10:35:05;Normalcharge  ;04.12.2018;FEY;;LION;49;14500;7200;224;4;96;99;8400;;4127;4127;1;13010;25.34;24.94;28,1;BCS1388054;3;2
009780;08.04.2021;10:36:56;Stop           ;04.12.2018;FEY;;LION;49;14500;7200;224;4;96;99;8400;;4127;4127;1;13007;25.34;26.24;29,0;BCS1388054;3;2
009780;18.04.2021;08:33:50;Normalcharge  ;04.12.2018;FEY;;LION;49;14500;7200;224;4;96;99;8400;;4123;4123;1;13008;25.94;26.34;27,8;BCS1388054;3;2
009780;18.04.2021;08:33:58;Stop           ;04.12.2018;FEY;;LION;49;14500;7200;224;4;96;99;8400;;4123;4123;1;13008;25.94;26.44;27,9;BCS1388054;3;2
009780;04.08.2021;07:24:50;Normalcharge  ;04.12.2018;FEY;;LION;49;14500;7200;192;4;93;96;8400;;4093;4092;1;12998;30.14;30.44;31,6;BCS1388054;3;2
009780;04.08.2021;07:25:37;Stop           ;04.12.2018;FEY;;LION;49;14500;7200;192;4;93;96;8400;;4092;4092;1;12996;30.14;30.94;31,7;BCS1388054;3;2
009780;22.08.2021;11:37:13;Normalcharge  ;04.12.2018;FEY;;LION;49;14500;7200;192;4;93;96;8400;;4088;4088;1;13018;22.24;28.54;31,9;BCS1388054;7;15
009780;22.08.2021;11:37:48;Stop          ;04.12.2018;FEY;;LION;49;14500;7200;192;4;93;96;8400;;4088;4088;1;12988;22.34;28.74;31,9;BCS1388054;7;15
009780;14.10.2021;12:40:21;Normalcharge  ;04.12.2018;FEY;;LION;49;14500;7200;192;4;90;93;8400;3000;4040;4041;1;13031;23.34;27.14;28,1;BCS1388054;7;5
009780;14.10.2021;12:42:05;Stop          ;04.12.2018;FEY;;LION;49;14500;7200;128;4;90;93;8400;3000;4121;4090;1;12742;23.54;29.84;28,5;BCS1388054;7;5
009780;14.03.2022;10:33:51;Normalcharge  ;04.12.2018;FEY;;LION;49;14500;7200;192;5;30;31;8400;3000;3546;3548;1;13012;23.94;25.04;25,3;BCS1388054;5;16
009780;14.03.2022;10:38:12;Stop          ;04.12.2018;FEY;;LION;49;14500;7200;128;5;30;31;8400;3000;3649;3601;1;12691;24.14;30.24;28,1;BCS1388054;5;16
009780;17.05.2022;08:54:36;Normalcharge  ;04.12.2018;FEY;;LION;49;14500;7200;192;5;29;29;8400;3000;3534;3536;1;13023;28.64;30.34;31,0;BCS1388054;7;2
009780;17.05.2022;13:41:52;Stop          ;04.12.2018;FEY;;LION;49;14500;7200;128;5;88;90;8400;3000;4141;4094;1;12952;34.44;38.74;34,0;BCS1388054;7;2