File: reader/Batterieverzeichnis_new/009788.txt
Serialnumber ; Date ; Time ; Action ; Date of Manufacture ; Manufacturer ; Battery Name ; Device-Chemistry ; Specification-Info ; Design-Capacity [mAh] ; Design-Voltage [mV] ; Battery Status ; Cycle Count ; SOC [%] ; Relativ SOC[%] ; Desired Voltage [mV]; Desired Current [mA]; Cell Voltage 1 [mV] ; Cell Voltage 2 [mV] ; Max_Error [%] ; Busvoltage[mV] ; Battery Temperature [°C] ; Charger Temperature [°C] ; Batterysystem ; Case ; PLace
009788;07.12.2020;04:14:28;Cycle         ;04.12.2018;FEY;;LION;49;14500;7200;192;3;99;98;8400;;4144;4144;1;13014;26.04;26.24;30,3;BCS1388054;4;18
009788;08.12.2020;16:19:56;Stop          ;04.12.2018;FEY;;LION;49;14500;7200;192;3;99;98;8400;;4142;4142;1;13014;27.84;27.84;31,9;BCS1388054;4;18
009788;07.02.2021;08:46:54;Normalcharge  ;04.12.2018;FEY;;LION;49;14500;7200;192;3;96;95;8400;3000;4098;4098;1;13015;23.74;25.24;29,2;BCS1388054;3;14
009788;07.02.2021;11:52:16;Stop           ;04.12.2018;FEY;;LION;49;14500;7200;224;3;102;100;8400;;4150;4150;1;13017;26.14;27.04;29,7;BCS1388054;3;14
009788;03.03.2021;08:17:35;Normalcharge  ;04.12.2018;FEY;;LION;49;14500;7200;192;3;74;75;8400;3000;3891;3892;1;12999;23.44;23.04;23,6;BCS1388054;5;13
009788;03.03.2021;11:26:36;Stop          ;04.12.2018;FEY;;LION;49;14500;7200;224;3;99;100;8400;;4159;4158;1;12994;29.24;29.74;31,5;BCS1388054;5;13
009788;06.04.2021;08:38:50;Normalcharge  ;04.12.2018;FEY;;LION;49;14500;7200;224;3;98;99;8400;;4133;4132;1;13014;21.04;24.34;28,1;BCS1388054;3;17
009788;06.04.2021;08:39:42;Stop           ;04.12.2018;FEY;;LION;49;14500;7200;224;3;98;99;8400;;4133;4132;1;13012;21.04;24.64;28,2;BCS1388054;3;17
009788;08.04.2021;07:58:01;Normalcharge  ;04.12.2018;FEY;;LION;49;14500;7200;224;3;97;99;8400;;4133;4132;1;13015;25.54;24.54;26,4;BCS1388054;3;17
009788;08.04.2021;07:59:40;Stop           ;04.12.2018;FEY;;LION;49;14500;7200;224;3;97;99;8400;;4132;4132;1;13012;25.54;25.24;26,8;BCS1388054;3;17
009788;08.04.2021;10:35:05;Normalcharge  ;04.12.2018;FEY;;LION;49;14500;7200;224;3;97;99;8400;;4132;4132;1;13012;25.74;24.84;28,1;BCS1388054;3;17
009788;08.04.2021;10:36:56;Stop           ;04.12.2018;FEY;;LION;49;14500;7200;224;3;97;99;8400;;4132;4132;1;13012;25.74;25.64;29,0;BCS1388054;3;17
009788;18.04.2021;08:33:50;Normalcharge  ;04.12.2018;FEY;;LION;49;14500;7200;224;3;97;99;8400;;4128;4128;1;13011;26.44;26.04;27,8;BCS1388054;3;17
009788;18.04.2021;08:33:58;Stop           ;04.12.2018;FEY;;LION;49;14500;7200;224;3;97;99;8400;;4128;4128;1;13012;26.44;26.14;27,9;BCS1388054;3;17
009788;04.08.2021;07:24:50;Normalcharge  ;04.12.2018;FEY;;LION;49;14500;7200;192;3;94;96;8400;;4095;4095;1;13008;30.64;30.14;31,6;BCS1388054;3;17
009788;04.08.2021;07:25:37;Stop           ;04.12.2018;FEY;;LION;49;14500;7200;192;3;94;96;8400;;4095;4095;1;13005;30.64;30.54;31,7;BCS1388054;3;17
009788;22.08.2021;11:07:59;Normalcharge  ;04.12.2018;FEY;;LION;49;14500;7200;192;3;68;69;8400;3000;3839;3839;1;13001;22.94;29.24;32,1;BCS1388054;3;4
009788;22.08.2021;11:08:33;Stop           ;04.12.2018;FEY;;LION;49;14500;7200;128;3;68;69;8400;3000;3904;3868;1;12707;23.04;30.44;32,4;BCS1388054;3;4
009788;12.10.2021;12:15:20;Normalcharge  ;04.12.2018;FEY;;LION;49;14500;7200;192;3;68;68;8400;3000;3817;3818;1;13008;23.74;25.34;27,9;BCS1388054;1;13
009788;12.10.2021;12:15:34;Stop          ;04.12.2018;FEY;;LION;49;14500;7200;192;3;68;68;8400;3000;3817;3818;1;12992;23.74;25.74;27,9;BCS1388054;1;13
009788;14.10.2021;12:40:22;Normalcharge  ;04.12.2018;FEY;;LION;49;14500;7200;192;3;68;68;8400;3000;3817;3818;1;13028;23.74;27.14;28,1;BCS1388054;7;8
009788;14.10.2021;12:42:05;Stop          ;04.12.2018;FEY;;LION;49;14500;7200;128;3;68;68;8400;3000;3914;3867;1;12733;23.84;30.64;28,5;BCS1388054;7;8
009788;07.02.2022;08:50:57;Normalcharge  ;04.12.2018;FEY;;LION;49;14500;7200;192;3;64;64;8400;3000;3776;3776;1;12998;22.44;23.04;25,1;BCS1388054;4;3
009788;07.02.2022;13:19:09;Stop          ;04.12.2018;FEY;;LION;49;14500;7200;224;3;100;100;8400;;4156;4154;1;12994;27.34;28.44;29,7;BCS1388054;4;3