File: reader/Batterieverzeichnis_new/009782.txt
Serialnumber ; Date ; Time ; Action ; Date of Manufacture ; Manufacturer ; Battery Name ; Device-Chemistry ; Specification-Info ; Design-Capacity [mAh] ; Design-Voltage [mV] ; Battery Status ; Cycle Count ; SOC [%] ; Relativ SOC[%] ; Desired Voltage [mV]; Desired Current [mA]; Cell Voltage 1 [mV] ; Cell Voltage 2 [mV] ; Max_Error [%] ; Busvoltage[mV] ; Battery Temperature [°C] ; Charger Temperature [°C] ; Batterysystem ; Case ; PLace
009782;30.11.2020;09:42:55;Stop          ;04.12.2018;FEY;;LION;49;14500;7200;224;5;97;100;8400;;4154;4155;1;13023;27.84;29.14;31,7;BCS1388054;7;7
009782;07.02.2021;08:46:43;Normalcharge  ;04.12.2018;FEY;;LION;49;14500;7200;192;5;94;97;8400;;4101;4102;1;13000;23.94;25.44;29,2;BCS1388054;1;18
009782;07.02.2021;11:52:07;Stop          ;04.12.2018;FEY;;LION;49;14500;7200;192;5;94;97;8400;;4101;4101;1;12997;25.64;26.64;29,7;BCS1388054;1;18
009782;03.03.2021;08:17:46;Normalcharge  ;04.12.2018;FEY;;LION;49;14500;7200;192;5;61;64;8400;3000;3791;3791;1;13037;23.14;24.04;23,6;BCS1388054;7;5
009782;03.03.2021;10:54:05;Stop          ;04.12.2018;FEY;;LION;49;14500;7200;128;5;93;97;8400;3000;4180;4146;1;12711;29.94;31.64;31,4;BCS1388054;7;5
009782;03.03.2021;10:55:49;Normalcharge  ;04.12.2018;FEY;;LION;49;14500;7200;192;5;93;97;8400;3000;4107;4108;1;13031;29.84;30.04;30,6;BCS1388054;7;5
009782;03.03.2021;17:03:24;Stop          ;04.12.2018;FEY;;LION;49;14500;7200;224;5;97;100;8400;;4152;4152;1;13033;26.24;27.44;31,4;BCS1388054;7;5
009782;04.04.2021;11:50:28;Normalcharge  ;04.12.2018;FEY;;LION;49;14500;7200;192;6;53;54;8400;3000;3685;3685;1;13005;25.04;25.64;27,9;BCS1388054;3;4
009782;04.04.2021;11:51:43;Stop           ;04.12.2018;FEY;;LION;49;14500;7200;128;6;53;54;8400;3000;3774;3725;1;12791;25.14;28.44;28,6;BCS1388054;3;4
009782;05.04.2021;09:38:00;Ladung auf 60% ;04.12.2018;FEY;;LION;49;14500;7200;192;6;53;54;8400;3000;3687;3686;1;12996;25.04;26.24;26,3;BCS1388054;3;8
009782;05.04.2021;10:06:07;Stop           ;04.12.2018;FEY;;LION;49;14500;7200;192;6;58;60;8400;3000;3750;3748;1;12994;27.34;30.14;31,4;BCS1388054;3;8
009782;22.08.2021;11:08:13;Normalcharge  ;04.12.2018;FEY;;LION;49;14500;7200;192;6;54;56;8400;3000;3695;3694;1;13002;29.94;30.44;32,2;BCS1388054;6;11
009782;22.08.2021;11:08:46;Stop          ;04.12.2018;FEY;;LION;49;14500;7200;128;6;54;56;8400;3000;3730;3710;1;12793;29.94;31.54;32,5;BCS1388054;6;11
009782;25.08.2021;08:13:04;Normalcharge  ;04.12.2018;FEY;;LION;49;14500;7200;192;6;52;53;8400;3000;3675;3675;1;13019;30.44;31.04;32,4;BCS1388054;7;13
009782;25.08.2021;08:13:16;Stop          ;04.12.2018;FEY;;LION;49;14500;7200;192;6;52;53;8400;3000;3675;3675;1;13009;30.44;31.34;32,5;BCS1388054;7;13
009782;25.08.2021;08:14:41;Charge to 60% ;04.12.2018;FEY;;LION;49;14500;7200;192;6;52;53;8400;3000;3675;3675;1;13018;30.44;31.44;33,0;BCS1388054;7;13
009782;25.08.2021;08:37:46;Stop          ;04.12.2018;FEY;;LION;49;14500;7200;128;6;56;58;8400;3000;3815;3766;1;12736;32.34;41.34;36,1;BCS1388054;7;13
009782;25.08.2021;08:38:03;Charge to 60% ;04.12.2018;FEY;;LION;49;14500;7200;128;6;56;58;8400;3000;3735;3737;1;13018;32.44;40.44;36,1;BCS1388054;7;13
009782;25.08.2021;13:26:36;Stop          ;04.12.2018;FEY;;LION;49;14500;7200;192;6;58;60;8400;3000;3738;3738;1;13017;32.84;34.24;36,4;BCS1388054;7;13
009782;01.11.2021;09:52:10;Normalcharge  ;04.12.2018;FEY;;LION;49;14500;7200;2768;6;;;8400;3000;3052;3042;1;13012;24.34;25.04;26,4;BCS1388054;3;3
009782;01.11.2021;09:53:26;Stop           ;04.12.2018;FEY;;LION;49;14500;7200;144;6;;;8400;3000;3210;3152;1;12623;24.34;28.34;27,1;BCS1388054;3;3
009782;01.11.2021;10:02:09;Normalcharge  ;04.12.2018;FEY;;LION;49;14500;7200;720;6;;;8400;3000;3072;3062;1;13008;24.64;27.74;29,5;BCS1388054;3;3
009782;01.11.2021;10:03:20;Stop           ;04.12.2018;FEY;;LION;49;14500;7200;144;6;;;8400;3000;3231;3174;1;12622;24.74;30.24;29,5;BCS1388054;3;3
009782;01.11.2021;10:18:15;Normalcharge  ;04.12.2018;FEY;;LION;49;14500;7200;720;6;;;8400;3000;3094;3086;1;13009;25.14;26.74;28,2;BCS1388054;3;3
009782;01.11.2021;10:18:55;Stop           ;04.12.2018;FEY;;LION;49;14500;7200;144;6;;;8400;3000;3206;3160;1;12654;25.24;28.44;28,2;BCS1388054;3;3
009782;01.11.2021;10:27:50;Normalcharge  ;04.12.2018;FEY;;LION;49;14500;7200;720;6;;;8400;3000;3102;3094;1;13009;25.34;27.04;27,8;BCS1388054;3;3
009782;01.11.2021;10:29:05;Stop           ;04.12.2018;FEY;;LION;49;14500;7200;144;6;;;8400;3000;3257;3202;1;12586;25.44;30.04;28,5;BCS1388054;3;3
009782;01.11.2021;10:32:24;Ladung auf 60% ;04.12.2018;FEY;;LION;49;14500;7200;720;6;;;8400;3000;3127;3119;1;13008;25.44;28.04;29,7;BCS1388054;3;3
009782;01.11.2021;15:19:46;Stop           ;04.12.2018;FEY;;LION;49;14500;7200;192;6;56;60;8400;3000;3800;3800;1;13008;30.54;30.54;32,7;BCS1388054;3;3
009782;07.02.2022;08:50:57;Normalcharge  ;04.12.2018;FEY;;LION;49;14500;7200;192;6;56;59;8400;3000;3731;3731;1;12999;22.34;22.24;25,1;BCS1388054;4;11
009782;07.02.2022;13:19:09;Stop          ;04.12.2018;FEY;;LION;49;14500;7200;224;6;95;100;8400;;4159;4159;1;12995;26.84;26.14;29,7;BCS1388054;4;11