File: reader/Batterieverzeichnis_new/009746.txt
Serialnumber ; Date ; Time ; Action ; Date of Manufacture ; Manufacturer ; Battery Name ; Device-Chemistry ; Specification-Info ; Design-Capacity [mAh] ; Design-Voltage [mV] ; Battery Status ; Cycle Count ; SOC [%] ; Relativ SOC[%] ; Desired Voltage [mV]; Desired Current [mA]; Cell Voltage 1 [mV] ; Cell Voltage 2 [mV] ; Max_Error [%] ; Busvoltage[mV] ; Battery Temperature [°C] ; Charger Temperature [°C] ; Batterysystem ; Case ; PLace
009746;07.12.2020;04:14:17;Cycle         ;04.12.2018;FEY;;LION;49;14500;7200;224;3;100;99;8400;;4149;4148;1;12999;25.54;26.64;30,3;BCS1388054;1;10
009746;08.12.2020;16:19:38;Stop          ;04.12.2018;FEY;;LION;49;14500;7200;224;4;98;100;8400;;4152;4153;1;12997;27.24;27.84;31,9;BCS1388054;1;10
009746;03.03.2021;08:17:29;Normalcharge  ;04.12.2018;FEY;;LION;49;14500;7200;192;4;85;88;8400;3000;4014;4015;1;12999;23.04;23.34;23,5;BCS1388054;4;11
009746;03.03.2021;10:32:46;Stop          ;04.12.2018;FEY;;LION;49;14500;7200;224;4;98;100;8400;;4157;4159;1;12994;27.94;28.04;32,0;BCS1388054;4;11
009746;04.04.2021;11:50:10;Normalcharge  ;04.12.2018;FEY;;LION;49;14500;7200;224;4;96;99;8400;;4133;4134;1;13009;24.84;26.74;27,8;BCS1388054;5;2
009746;04.04.2021;11:51:30;Stop          ;04.12.2018;FEY;;LION;49;14500;7200;224;4;96;99;8400;;4134;4135;1;12693;24.84;27.54;28,5;BCS1388054;5;2
009746;22.08.2021;11:37:25;Normalcharge  ;04.12.2018;FEY;;LION;49;14500;7200;192;4;91;93;8400;3000;4063;4064;1;12996;21.14;27.84;31,9;BCS1388054;4;14
009746;22.08.2021;11:38:13;Stop          ;04.12.2018;FEY;;LION;49;14500;7200;128;4;91;93;8400;3000;4118;4096;1;12628;21.34;29.94;32,1;BCS1388054;4;14
009746;14.10.2021;12:40:18;Normalcharge  ;04.12.2018;FEY;;LION;49;14500;7200;192;5;69;71;8400;3000;3841;3842;1;12999;23.24;25.74;28,1;BCS1388054;6;12
009746;14.10.2021;12:41:59;Stop          ;04.12.2018;FEY;;LION;49;14500;7200;128;5;69;71;8400;3000;3937;3891;1;12625;23.44;28.04;28,5;BCS1388054;6;12
009746;07.02.2022;08:51:46;Normalcharge  ;04.12.2018;FEY;;LION;49;14500;7200;192;5;69;71;8400;3000;3814;3815;1;13016;22.34;23.24;25,6;BCS1388054;2;9
009746;07.02.2022;13:15:56;Stop          ;04.12.2018;FEY;;LION;49;14500;7200;224;5;98;100;8400;;4155;4156;1;13011;25.94;27.14;31,1;BCS1388054;2;9