File: reader/Batterieverzeichnis_new/009749.txt
Serialnumber ; Date ; Time ; Action ; Date of Manufacture ; Manufacturer ; Battery Name ; Device-Chemistry ; Specification-Info ; Design-Capacity [mAh] ; Design-Voltage [mV] ; Battery Status ; Cycle Count ; SOC [%] ; Relativ SOC[%] ; Desired Voltage [mV]; Desired Current [mA]; Cell Voltage 1 [mV] ; Cell Voltage 2 [mV] ; Max_Error [%] ; Busvoltage[mV] ; Battery Temperature [°C] ; Charger Temperature [°C] ; Batterysystem ; Case ; PLace
009749;07.02.2021;08:47:00;Normalcharge  ;04.12.2018;FEY;;LION;49;14500;7200;192;5;90;93;8400;3000;4063;4062;1;13004;23.54;26.44;29,2;BCS1388054;4;7
009749;07.02.2021;11:52:20;Stop          ;04.12.2018;FEY;;LION;49;14500;7200;224;5;98;100;8400;;4150;4147;1;13004;26.14;27.74;29,7;BCS1388054;4;7
009749;03.03.2021;08:17:17;Normalcharge  ;04.12.2018;FEY;;LION;49;14500;7200;192;5;91;94;8400;3000;4082;4080;1;13009;23.24;23.74;23,5;BCS1388054;2;17
009749;04.03.2021;07:53:46;Stop          ;04.12.2018;FEY;;LION;49;14500;7200;224;5;97;100;8400;;4145;4142;1;13001;26.34;28.24;31,6;BCS1388054;2;17
009749;04.04.2021;11:49:55;Normalcharge  ;04.12.2018;FEY;;LION;49;14500;7200;192;5;53;55;8400;3000;3693;3690;1;13028;24.84;24.84;27,5;BCS1388054;7;6
009749;04.04.2021;11:51:17;Stop          ;04.12.2018;FEY;;LION;49;14500;7200;128;5;53;55;8400;3000;3784;3731;1;12751;24.94;27.14;28,4;BCS1388054;7;6
009749;05.04.2021;09:38:00;Ladung auf 60% ;04.12.2018;FEY;;LION;49;14500;7200;192;5;53;55;8400;3000;3695;3692;1;12996;25.04;25.34;26,3;BCS1388054;3;6
009749;05.04.2021;10:06:07;Stop           ;04.12.2018;FEY;;LION;49;14500;7200;192;5;57;60;8400;3000;3756;3751;1;12994;27.04;27.54;31,4;BCS1388054;3;6
009749;22.08.2021;11:08:13;Normalcharge  ;04.12.2018;FEY;;LION;49;14500;7200;192;5;54;56;8400;3000;3701;3698;1;12999;29.94;30.34;32,2;BCS1388054;6;9
009749;22.08.2021;11:08:46;Stop          ;04.12.2018;FEY;;LION;49;14500;7200;128;5;54;56;8400;3000;3731;3711;1;12800;29.94;31.54;32,5;BCS1388054;6;9
009749;25.08.2021;08:13:04;Normalcharge  ;04.12.2018;FEY;;LION;49;14500;7200;192;5;54;56;8400;3000;3700;3697;1;13000;30.54;31.34;32,4;BCS1388054;7;9
009749;25.08.2021;08:13:16;Stop          ;04.12.2018;FEY;;LION;49;14500;7200;192;5;54;56;8400;3000;3700;3697;1;12991;30.54;31.64;32,5;BCS1388054;7;9
009749;25.08.2021;08:14:41;Charge to 60% ;04.12.2018;FEY;;LION;49;14500;7200;192;5;54;56;8400;3000;3700;3698;1;13000;30.54;31.74;33,0;BCS1388054;7;9
009749;25.08.2021;08:37:46;Stop          ;04.12.2018;FEY;;LION;49;14500;7200;192;5;57;60;8400;3000;3753;3749;1;12740;32.04;34.84;36,1;BCS1388054;7;9
009749;25.08.2021;08:38:03;Charge to 60% ;04.12.2018;FEY;;LION;49;14500;7200;192;5;57;60;8400;3000;3753;3749;1;12998;32.04;34.74;36,1;BCS1388054;7;9
009749;25.08.2021;13:26:36;Stop          ;04.12.2018;FEY;;LION;49;14500;7200;192;5;57;60;8400;3000;3748;3744;1;13000;32.84;33.84;36,4;BCS1388054;7;9
009749;01.11.2021;09:51:55;Normalcharge  ;04.12.2018;FEY;;LION;49;14500;7200;192;5;55;57;8400;3000;3717;3714;1;13008;25.84;25.34;26,3;BCS1388054;6;4
009749;01.11.2021;09:53:45;Stop          ;04.12.2018;FEY;;LION;49;14500;7200;128;5;55;57;8400;3000;3816;3759;1;12630;25.94;29.64;27,3;BCS1388054;6;4
009749;01.11.2021;10:02:24;Normalcharge  ;04.12.2018;FEY;;LION;49;14500;7200;192;5;55;57;8400;3000;3722;3719;1;12999;26.04;27.34;29,5;BCS1388054;6;4
009749;01.11.2021;10:03:07;Stop          ;04.12.2018;FEY;;LION;49;14500;7200;128;5;55;58;8400;3000;3810;3758;1;12630;26.04;28.94;29,3;BCS1388054;6;4
009749;01.11.2021;10:27:30;Normalcharge  ;04.12.2018;FEY;;LION;49;14500;7200;192;5;55;58;8400;3000;3723;3720;1;13004;26.34;26.04;27,8;BCS1388054;6;4
009749;01.11.2021;10:29:18;Stop          ;04.12.2018;FEY;;LION;49;14500;7200;128;5;56;58;8400;3000;3821;3765;1;12631;26.44;30.34;28,6;BCS1388054;6;4
009749;01.11.2021;14:25:59;Stop          ;04.12.2018;FEY;;LION;49;14500;7200;192;5;57;60;8400;3000;3751;3747;1;13000;28.24;28.94;32,6;BCS1388054;6;4
009749;09.02.2022;08:16:56;Normalcharge  ;04.12.2018;FEY;;LION;49;14500;7200;192;5;55;57;8400;3000;3711;3709;1;13008;22.34;23.24;23,1;BCS1388054;2;2
009749;09.02.2022;12:43:52;Stop          ;04.12.2018;FEY;;LION;49;14500;7200;224;5;97;100;8400;;4160;4159;1;13002;26.44;28.04;29,9;BCS1388054;2;2
009749;14.03.2022;12:14:30;Normalcharge  ;04.12.2018;FEY;;LION;49;14500;7200;224;5;95;99;8400;;4130;4129;1;13010;24.54;25.34;27,5;BCS1388054;4;12
009749;14.03.2022;12:18:42;Stop          ;04.12.2018;FEY;;LION;49;14500;7200;224;5;95;99;8400;;4130;4128;1;12829;24.54;25.64;29,5;BCS1388054;4;12
009749;29.03.2022;08:21:05;Normalcharge  ;04.12.2018;FEY;;LION;49;14500;7200;192;6;94;97;8400;;4104;4103;1;13011;24.84;26.04;25,8;BCS1388054;2;5
009749;29.03.2022;08:21:45;Stop          ;04.12.2018;FEY;;LION;49;14500;7200;192;6;94;97;8400;;4104;4102;1;12742;24.84;26.34;26,0;BCS1388054;2;5
009749;29.03.2022;08:22:05;Normalcharge  ;04.12.2018;FEY;;LION;49;14500;7200;192;6;94;97;8400;;4104;4103;1;13010;24.84;26.44;26,1;BCS1388054;2;5
009749;29.03.2022;08:22:43;Stop          ;04.12.2018;FEY;;LION;49;14500;7200;192;6;94;97;8400;;4103;4102;1;12772;24.84;26.64;26,6;BCS1388054;2;5