File: reader/Batterieverzeichnis_new/009711.txt
Serialnumber ; Date ; Time ; Action ; Date of Manufacture ; Manufacturer ; Battery Name ; Device-Chemistry ; Specification-Info ; Design-Capacity [mAh] ; Design-Voltage [mV] ; Battery Status ; Cycle Count ; SOC [%] ; Relativ SOC[%] ; Desired Voltage [mV]; Desired Current [mA]; Cell Voltage 1 [mV] ; Cell Voltage 2 [mV] ; Max_Error [%] ; Busvoltage[mV] ; Battery Temperature [°C] ; Charger Temperature [°C] ; Batterysystem ; Case ; PLace
009711;07.12.2020;04:14:21;Cycle         ;04.12.2018;FEY;;LION;49;14500;7200;16576;2;98;99;;;4161;4161;1;12994;25.74;27.64;30,3;BCS1388054;2;14
009711;08.12.2020;16:19:44;Stop          ;04.12.2018;FEY;;LION;49;14500;7200;16576;2;98;99;;;4158;4158;1;12993;27.94;29.34;31,9;BCS1388054;2;14
009711;12.01.2021;04:17:40;Charge to 90% ;04.12.2018;FEY;;LION;49;14500;7200;16576;2;97;98;;;4142;4141;1;13000;23.24;23.94;23,6;BCS1388054;6;10
009711;12.01.2021;05:00:55;Stop          ;04.12.2018;FEY;;LION;49;14500;7200;192;2;90;90;8400;3000;4061;4061;1;12994;27.24;29.14;31,2;BCS1388054;6;10
009711;12.01.2021;05:21:57;Cycle         ;04.12.2018;FEY;;LION;49;14500;7200;192;2;90;90;8400;3000;4066;4066;1;12995;27.14;28.14;30,4;BCS1388054;6;10
009711;13.01.2021;08:31:18;Stop          ;04.12.2018;FEY;;LION;49;14500;7200;224;3;97;100;8400;;4155;4155;1;12996;27.14;28.14;31,1;BCS1388054;6;10
009711;21.02.2021;13:45:29;Normalcharge  ;04.12.2018;FEY;;LION;49;14500;7200;192;4;51;52;8400;3000;3680;3678;1;13017;22.84;23.84;27,8;BCS1388054;6;17
009711;06.04.2021;08:38:40;Normalcharge  ;04.12.2018;FEY;;LION;49;14500;7200;224;4;96;99;8400;;4128;4130;1;13000;21.34;26.14;28,1;BCS1388054;1;8
009711;06.04.2021;08:39:29;Stop          ;04.12.2018;FEY;;LION;49;14500;7200;224;4;96;99;8400;;4129;4130;1;12999;21.34;26.64;28,2;BCS1388054;1;8
009711;08.04.2021;07:57:52;Normalcharge  ;04.12.2018;FEY;;LION;49;14500;7200;224;4;96;99;8400;;4128;4129;1;13000;25.34;26.14;26,3;BCS1388054;1;8
009711;08.04.2021;07:59:50;Stop          ;04.12.2018;FEY;;LION;49;14500;7200;224;4;96;99;8400;;4128;4129;1;12944;25.34;27.14;26,8;BCS1388054;1;8
009711;08.04.2021;10:34:35;Normalcharge  ;04.12.2018;FEY;;LION;49;14500;7200;224;4;96;99;8400;;4128;4129;1;13000;26.54;28.64;28,1;BCS1388054;1;8
009711;08.04.2021;10:36:49;Stop          ;04.12.2018;FEY;;LION;49;14500;7200;224;4;96;99;8400;;4129;4130;1;12882;26.54;28.74;28,9;BCS1388054;1;8
009711;18.04.2021;08:33:24;Normalcharge  ;04.12.2018;FEY;;LION;49;14500;7200;192;4;96;98;8400;;4124;4125;1;12998;26.34;27.54;27,7;BCS1388054;1;8
009711;18.04.2021;08:33:29;Stop          ;04.12.2018;FEY;;LION;49;14500;7200;192;4;96;98;8400;;4124;4125;1;12994;26.34;27.54;27,7;BCS1388054;1;8
009711;04.08.2021;07:25:01;Normalcharge  ;04.12.2018;FEY;;LION;49;14500;7200;192;4;93;96;8400;;4093;4094;1;12992;30.74;32.04;31,5;BCS1388054;1;8
009711;04.08.2021;07:25:57;Stop          ;04.12.2018;FEY;;LION;49;14500;7200;192;4;93;96;8400;;4094;4094;1;12785;30.74;32.34;31,9;BCS1388054;1;8
009711;22.08.2021;11:08:09;Normalcharge  ;04.12.2018;FEY;;LION;49;14500;7200;192;4;85;88;8400;3000;4015;4015;1;13010;23.34;29.84;32,1;BCS1388054;5;15
009711;22.08.2021;11:08:42;Stop          ;04.12.2018;FEY;;LION;49;14500;7200;128;4;85;88;8400;3000;4034;4026;1;12857;23.44;30.94;32,5;BCS1388054;5;15
009711;01.11.2021;09:52:05;Normalcharge  ;04.12.2018;FEY;;LION;49;14500;7200;192;4;84;86;8400;3000;3993;3993;1;12995;25.44;25.44;26,3;BCS1388054;4;3
009711;01.11.2021;09:53:34;Stop          ;04.12.2018;FEY;;LION;49;14500;7200;128;4;84;87;8400;3000;4087;4043;1;12612;25.54;29.44;27,1;BCS1388054;4;3
009711;01.11.2021;10:02:14;Normalcharge  ;04.12.2018;FEY;;LION;49;14500;7200;192;4;84;87;8400;3000;3996;3996;1;12991;25.64;28.54;29,5;BCS1388054;4;3
009711;01.11.2021;10:03:16;Stop          ;04.12.2018;FEY;;LION;49;14500;7200;128;4;84;87;8400;3000;4091;4044;1;12590;25.64;30.74;29,3;BCS1388054;4;3
009711;28.12.2021;09:01:25;Normalcharge  ;04.12.2018;FEY;;LION;49;14500;7200;192;4;82;85;8400;3000;3978;3978;1;13005;23.94;23.34;25,3;BCS1388054;3;16
009711;28.12.2021;09:02:25;Stop           ;04.12.2018;FEY;;LION;49;14500;7200;128;4;82;85;8400;3000;4074;4029;1;12544;24.04;25.54;25,8;BCS1388054;3;16
009711;09.02.2022;08:17:09;Normalcharge  ;04.12.2018;FEY;;LION;49;14500;7200;192;4;81;84;8400;3000;3963;3963;1;13010;21.44;22.44;23,3;BCS1388054;5;11
009711;09.02.2022;13:56:40;Stop          ;04.12.2018;FEY;;LION;49;14500;7200;224;4;98;100;8400;;4144;4146;1;13003;24.54;24.64;29,9;BCS1388054;5;11