File: reader/Batterieverzeichnis_new/009753.txt
Serialnumber ; Date ; Time ; Action ; Date of Manufacture ; Manufacturer ; Battery Name ; Device-Chemistry ; Specification-Info ; Design-Capacity [mAh] ; Design-Voltage [mV] ; Battery Status ; Cycle Count ; SOC [%] ; Relativ SOC[%] ; Desired Voltage [mV]; Desired Current [mA]; Cell Voltage 1 [mV] ; Cell Voltage 2 [mV] ; Max_Error [%] ; Busvoltage[mV] ; Battery Temperature [°C] ; Charger Temperature [°C] ; Batterysystem ; Case ; PLace
009753;07.12.2020;04:14:36;Cycle         ;04.12.2018;FEY;;LION;49;14500;7200;16576;4;97;98;;;4152;4154;1;13003;25.64;27.04;30,3;BCS1388054;6;4
009753;08.12.2020;16:20:13;Stop          ;04.12.2018;FEY;;LION;49;14500;7200;16576;4;97;99;;;4149;4151;1;13003;27.74;28.54;31,9;BCS1388054;6;4
009753;07.02.2021;08:47:00;Normalcharge  ;04.12.2018;FEY;;LION;49;14500;7200;16576;4;90;92;;;4071;4072;1;13016;23.44;26.04;29,2;BCS1388054;4;16
009753;07.02.2021;11:52:20;Stop          ;04.12.2018;FEY;;LION;49;14500;7200;16576;4;90;92;;;4071;4073;1;13016;25.84;27.24;29,7;BCS1388054;4;16
009753;03.03.2021;08:17:29;Normalcharge  ;04.12.2018;FEY;;LION;49;14500;7200;192;4;85;87;8400;3000;4020;4022;1;13011;23.14;23.74;23,5;BCS1388054;4;12
009753;03.03.2021;10:32:46;Stop          ;04.12.2018;FEY;;LION;49;14500;7200;224;4;98;100;8400;;4155;4158;1;13008;28.04;28.04;32,0;BCS1388054;4;12
009753;04.04.2021;11:50:22;Normalcharge  ;04.12.2018;FEY;;LION;49;14500;7200;192;5;50;52;8400;3000;3672;3673;1;13011;25.14;25.84;27,9;BCS1388054;4;8
009753;04.04.2021;11:51:36;Stop          ;04.12.2018;FEY;;LION;49;14500;7200;128;5;51;53;8400;3000;3758;3710;1;12722;25.14;28.64;28,6;BCS1388054;4;8
009753;05.04.2021;09:38:11;Charge to 60% ;04.12.2018;FEY;;LION;49;14500;7200;192;5;51;53;8400;3000;3674;3674;1;13019;25.04;26.54;26,3;BCS1388054;4;16
009753;05.04.2021;10:13:52;Stop          ;04.12.2018;FEY;;LION;49;14500;7200;192;5;57;60;8400;3000;3753;3754;1;13015;27.84;30.64;32,1;BCS1388054;4;16
009753;22.08.2021;11:37:25;Normalcharge  ;04.12.2018;FEY;;LION;49;14500;7200;192;5;48;50;8400;3000;3639;3639;1;12998;21.84;28.04;31,9;BCS1388054;4;17
009753;22.08.2021;11:38:13;Stop          ;04.12.2018;FEY;;LION;49;14500;7200;128;5;48;50;8400;3000;3713;3672;1;12602;21.94;30.04;32,1;BCS1388054;4;17
009753;25.08.2021;08:15:08;Charge to 60% ;04.12.2018;FEY;;LION;49;14500;7200;192;5;47;49;8400;3000;3641;3641;1;12996;30.44;31.64;33,4;BCS1388054;4;17
009753;25.08.2021;12:59:17;Stop          ;04.12.2018;FEY;;LION;49;14500;7200;192;5;58;60;8400;3000;3730;3731;1;12996;32.64;33.84;36,6;BCS1388054;4;17
009753;01.11.2021;09:52:20;Normalcharge  ;04.12.2018;FEY;;LION;49;14500;7200;192;5;54;56;8400;3000;3702;3703;1;12993;25.84;26.24;26,4;BCS1388054;1;5
009753;01.11.2021;09:53:13;Stop          ;04.12.2018;FEY;;LION;49;14500;7200;128;5;54;56;8400;3000;3788;3741;1;12467;25.94;28.14;26,8;BCS1388054;1;5
009753;01.11.2021;10:01:59;Normalcharge  ;04.12.2018;FEY;;LION;49;14500;7200;192;5;54;56;8400;3000;3704;3705;1;12988;26.04;27.14;29,5;BCS1388054;1;5
009753;01.11.2021;10:03:29;Stop          ;04.12.2018;FEY;;LION;49;14500;7200;128;5;54;56;8400;3000;3797;3749;1;12456;26.14;29.44;29,3;BCS1388054;1;5
009753;01.11.2021;10:27:58;Normalcharge  ;04.12.2018;FEY;;LION;49;14500;7200;192;5;54;56;8400;3000;3707;3708;1;12990;26.24;26.64;27,8;BCS1388054;1;5
009753;01.11.2021;10:28:31;Stop          ;04.12.2018;FEY;;LION;49;14500;7200;128;5;54;56;8400;3000;3732;3719;1;12671;26.24;27.54;28,1;BCS1388054;1;5
009753;01.11.2021;10:31:48;Charge to 60% ;04.12.2018;FEY;;LION;49;14500;7200;192;5;54;56;8400;3000;3708;3709;1;12990;26.34;25.24;29,9;BCS1388054;1;5
009753;01.11.2021;11:39:51;Stop          ;04.12.2018;FEY;;LION;49;14500;7200;192;5;58;60;8400;3000;3747;3749;1;12989;27.84;28.24;32,5;BCS1388054;1;5
009753;09.02.2022;08:16:56;Normalcharge  ;04.12.2018;FEY;;LION;49;14500;7200;192;5;54;56;8400;3000;3707;3707;1;12993;22.64;23.14;23,1;BCS1388054;2;18
009753;09.02.2022;12:43:52;Stop          ;04.12.2018;FEY;;LION;49;14500;7200;224;5;97;100;8400;;4162;4165;1;12987;25.44;27.34;29,9;BCS1388054;2;18