File: reader/Batterieverzeichnis_new/009726.txt
Serialnumber ; Date ; Time ; Action ; Date of Manufacture ; Manufacturer ; Battery Name ; Device-Chemistry ; Specification-Info ; Design-Capacity [mAh] ; Design-Voltage [mV] ; Battery Status ; Cycle Count ; SOC [%] ; Relativ SOC[%] ; Desired Voltage [mV]; Desired Current [mA]; Cell Voltage 1 [mV] ; Cell Voltage 2 [mV] ; Max_Error [%] ; Busvoltage[mV] ; Battery Temperature [°C] ; Charger Temperature [°C] ; Batterysystem ; Case ; PLace
009726;12.01.2021;04:16:00;Charge to 90% ;04.12.2018;FEY;;LION;49;14500;7200;192;3;97;97;8400;;4129;4129;1;12997;23.24;19.34;23,0;BCS1388054;1;1
009726;12.01.2021;04:16:03;Stop          ;04.12.2018;FEY;;LION;49;14500;7200;192;3;97;97;8400;;4129;4129;1;12997;23.24;22.54;23,0;BCS1388054;1;1
009726;12.01.2021;04:17:15;Charge to 90% ;04.12.2018;FEY;;LION;49;14500;7200;192;3;97;97;8400;;4129;4129;1;12996;23.24;23.44;23,5;BCS1388054;1;1
009726;12.01.2021;04:55:18;Stop          ;04.12.2018;FEY;;LION;49;14500;7200;192;3;90;90;8400;3000;4061;4060;1;12993;26.94;30.04;31,7;BCS1388054;1;1
009726;12.01.2021;05:21:33;Cycle         ;04.12.2018;FEY;;LION;49;14500;7200;192;3;90;90;8400;3000;4066;4066;1;12993;27.04;28.14;30,6;BCS1388054;1;1
009726;13.01.2021;08:18:34;Stop          ;04.12.2018;FEY;;LION;49;14500;7200;224;4;97;100;8400;;4155;4156;1;12993;26.94;28.04;30,7;BCS1388054;1;1
009726;22.02.2021;17:31:46;Normalcharge  ;04.12.2018;FEY;;LION;49;14500;7200;192;5;47;49;8400;3000;3648;3648;1;12998;26.24;26.24;31,6;BCS1388054;1;18
009726;22.02.2021;23:06:28;Stop          ;04.12.2018;FEY;;LION;49;14500;7200;224;5;98;100;8400;;4156;4156;1;12998;26.54;27.54;30,6;BCS1388054;1;18
009726;06.04.2021;08:39:10;Normalcharge  ;04.12.2018;FEY;;LION;49;14500;7200;224;5;97;99;8400;;4128;4127;1;13015;21.74;26.04;28,1;BCS1388054;5;15
009726;06.04.2021;08:39:58;Stop          ;04.12.2018;FEY;;LION;49;14500;7200;224;5;97;99;8400;;4128;4128;1;13014;21.84;26.34;28,4;BCS1388054;5;15
009726;08.04.2021;07:58:30;Normalcharge  ;04.12.2018;FEY;;LION;49;14500;7200;224;5;96;99;8400;;4127;4127;1;13016;25.44;26.24;26,4;BCS1388054;5;15
009726;08.04.2021;07:59:28;Stop          ;04.12.2018;FEY;;LION;49;14500;7200;224;5;96;99;8400;;4127;4127;1;13015;25.44;26.64;26,7;BCS1388054;5;15
009726;08.04.2021;10:36:12;Normalcharge  ;04.12.2018;FEY;;LION;49;14500;7200;224;5;96;99;8400;;4127;4127;1;13014;25.64;27.04;28,6;BCS1388054;5;15
009726;08.04.2021;10:37:06;Stop          ;04.12.2018;FEY;;LION;49;14500;7200;224;5;96;99;8400;;4127;4127;1;13013;25.64;27.44;29,0;BCS1388054;5;15
009726;18.04.2021;08:34:16;Normalcharge  ;04.12.2018;FEY;;LION;49;14500;7200;224;5;96;99;8400;;4123;4123;1;13014;26.34;27.84;28,1;BCS1388054;5;15
009726;18.04.2021;08:34:27;Stop          ;04.12.2018;FEY;;LION;49;14500;7200;224;5;96;99;8400;;4123;4123;1;13014;26.34;27.84;28,2;BCS1388054;5;15
009726;04.08.2021;07:24:41;Normalcharge  ;04.12.2018;FEY;;LION;49;14500;7200;192;5;94;96;8400;;4093;4092;1;13010;30.44;31.64;31,5;BCS1388054;5;15
009726;04.08.2021;07:25:23;Stop          ;04.12.2018;FEY;;LION;49;14500;7200;192;5;94;96;8400;;4092;4092;1;13010;30.44;32.04;31,6;BCS1388054;5;15
009726;22.08.2021;11:37:17;Normalcharge  ;04.12.2018;FEY;;LION;49;14500;7200;192;5;93;95;8400;3000;4088;4088;1;12995;23.14;28.84;31,9;BCS1388054;6;1
009726;22.08.2021;11:37:57;Stop          ;04.12.2018;FEY;;LION;49;14500;7200;128;5;93;95;8400;3000;4119;4107;1;12882;23.24;30.24;32,0;BCS1388054;6;1
009726;12.10.2021;12:15:20;Normalcharge  ;04.12.2018;FEY;;LION;49;14500;7200;192;5;92;94;8400;3000;4075;4075;1;12992;24.24;26.14;27,9;BCS1388054;1;11
009726;12.10.2021;12:15:34;Stop          ;04.12.2018;FEY;;LION;49;14500;7200;192;5;92;94;8400;3000;4075;4075;1;12977;24.24;26.74;27,9;BCS1388054;1;11
009726;14.10.2021;12:40:07;Normalcharge  ;04.12.2018;FEY;;LION;49;14500;7200;192;5;91;93;8400;3000;4075;4075;1;12994;25.14;26.64;27,9;BCS1388054;4;3
009726;14.10.2021;12:41:43;Stop          ;04.12.2018;FEY;;LION;49;14500;7200;128;5;92;94;8400;3000;4143;4116;1;12663;25.24;30.04;28,4;BCS1388054;4;3
009726;28.12.2021;09:01:33;Normalcharge  ;04.12.2018;FEY;;LION;49;14500;7200;192;5;80;82;8400;3000;3947;3947;1;13003;23.94;23.44;25,4;BCS1388054;5;6
009726;28.12.2021;09:02:46;Stop          ;04.12.2018;FEY;;LION;49;14500;7200;128;5;81;82;8400;3000;4046;3998;1;12663;24.04;25.44;26,0;BCS1388054;5;6
009726;14.03.2022;10:33:57;Normalcharge  ;04.12.2018;FEY;;LION;49;14500;7200;192;5;46;47;8400;3000;3630;3630;1;13003;24.44;24.64;25,4;BCS1388054;4;15
009726;14.03.2022;10:38:19;Stop          ;04.12.2018;FEY;;LION;49;14500;7200;128;5;47;48;8400;3000;3730;3680;1;12591;24.74;31.24;28,1;BCS1388054;4;15
009726;17.05.2022;08:54:36;Normalcharge  ;04.12.2018;FEY;;LION;49;14500;7200;192;5;46;47;8400;3000;3627;3626;1;13024;28.64;29.34;31,0;BCS1388054;7;18
009726;17.05.2022;13:41:52;Stop          ;04.12.2018;FEY;;LION;49;14500;7200;128;5;98;100;8400;3000;4181;4167;1;12941;32.54;36.04;34,0;BCS1388054;7;18