File: reader/Batterieverzeichnis_new/009779.txt
Serialnumber ; Date ; Time ; Action ; Date of Manufacture ; Manufacturer ; Battery Name ; Device-Chemistry ; Specification-Info ; Design-Capacity [mAh] ; Design-Voltage [mV] ; Battery Status ; Cycle Count ; SOC [%] ; Relativ SOC[%] ; Desired Voltage [mV]; Desired Current [mA]; Cell Voltage 1 [mV] ; Cell Voltage 2 [mV] ; Max_Error [%] ; Busvoltage[mV] ; Battery Temperature [°C] ; Charger Temperature [°C] ; Batterysystem ; Case ; PLace
009779;07.12.2020;04:14:28;Cycle         ;04.12.2018;FEY;;LION;49;14500;7200;16576;4;94;98;;;4141;4141;1;12994;25.64;27.24;30,3;BCS1388054;4;5
009779;08.12.2020;16:19:56;Stop          ;04.12.2018;FEY;;LION;49;14500;7200;16576;4;94;98;;;4138;4138;1;12993;27.64;28.44;31,9;BCS1388054;4;5
009779;07.02.2021;08:46:54;Normalcharge  ;04.12.2018;FEY;;LION;49;14500;7200;16576;4;91;95;;;4100;4100;1;13010;23.44;25.54;29,2;BCS1388054;3;15
009779;07.02.2021;11:52:16;Stop           ;04.12.2018;FEY;;LION;49;14500;7200;16576;4;91;95;;;4100;4100;1;13010;25.84;27.24;29,7;BCS1388054;3;15
009779;03.03.2021;08:17:40;Normalcharge  ;04.12.2018;FEY;;LION;49;14500;7200;192;4;66;68;8400;3000;3851;3850;1;12989;23.14;22.54;23,6;BCS1388054;6;16
009779;03.03.2021;11:56:52;Stop          ;04.12.2018;FEY;;LION;49;14500;7200;224;4;97;100;8400;;4158;4158;1;12982;28.64;28.34;31,7;BCS1388054;6;16
009779;06.04.2021;08:39:03;Normalcharge  ;04.12.2018;FEY;;LION;49;14500;7200;2768;5;;;8400;3000;3131;3106;1;13010;25.14;25.04;28,1;BCS1388054;4;13
009779;06.04.2021;08:39:53;Stop          ;04.12.2018;FEY;;LION;49;14500;7200;2768;5;;;8400;3000;3131;3106;1;13008;25.04;26.54;28,4;BCS1388054;4;13
009779;08.04.2021;07:59:34;Stop          ;04.12.2018;FEY;;LION;49;14500;7200;144;5;1;1;8400;3000;3303;3233;1;12980;25.24;28.34;26,7;BCS1388054;4;13
009779;08.04.2021;08:09:05;Charge to 60% ;04.12.2018;FEY;;LION;49;14500;7200;720;5;1;1;8400;3000;3157;3134;1;13013;25.24;24.54;27,4;BCS1388054;1;13
009779;08.04.2021;10:32:41;Stop          ;04.12.2018;FEY;;LION;49;14500;7200;128;5;31;32;8400;3000;3667;3618;1;12971;28.24;33.54;28,8;BCS1388054;1;13
009779;08.04.2021;10:34:35;Normalcharge  ;04.12.2018;FEY;;LION;49;14500;7200;192;5;31;32;8400;3000;3582;3582;1;13009;28.24;29.64;28,1;BCS1388054;1;13
009779;08.04.2021;10:36:49;Stop          ;04.12.2018;FEY;;LION;49;14500;7200;128;5;31;33;8400;3000;3668;3619;1;12889;28.14;32.24;28,9;BCS1388054;1;13
009779;18.04.2021;08:33:24;Normalcharge  ;04.12.2018;FEY;;LION;49;14500;7200;192;5;33;35;8400;3000;3572;3571;1;13012;26.14;25.54;27,7;BCS1388054;1;13
009779;18.04.2021;08:33:29;Stop          ;04.12.2018;FEY;;LION;49;14500;7200;192;5;33;35;8400;3000;3572;3571;1;13010;26.14;25.64;27,7;BCS1388054;1;13
009779;04.08.2021;07:25:01;Normalcharge  ;04.12.2018;FEY;;LION;49;14500;7200;192;5;32;34;8400;3000;3555;3554;1;13004;30.54;29.94;31,5;BCS1388054;1;13
009779;04.08.2021;07:25:57;Stop          ;04.12.2018;FEY;;LION;49;14500;7200;128;5;32;34;8400;3000;3640;3590;1;12789;30.54;32.34;31,9;BCS1388054;1;13
009779;25.08.2021;08:15:19;Charge to 60% ;04.12.2018;FEY;;LION;49;14500;7200;192;5;30;32;8400;3000;3551;3549;1;12993;30.34;32.14;33,5;BCS1388054;2;12
009779;25.08.2021;10:43:16;Stop          ;04.12.2018;FEY;;LION;49;14500;7200;192;5;56;60;8400;3000;3720;3720;1;12991;33.04;34.24;36,4;BCS1388054;2;12
009779;01.11.2021;09:52:14;Normalcharge  ;04.12.2018;FEY;;LION;49;14500;7200;192;5;51;54;8400;3000;3688;3688;1;12987;25.84;26.44;26,3;BCS1388054;2;7
009779;01.11.2021;09:53:17;Stop          ;04.12.2018;FEY;;LION;49;14500;7200;128;5;51;54;8400;3000;3776;3727;1;12510;25.84;29.14;26,8;BCS1388054;2;7
009779;01.11.2021;10:02:05;Normalcharge  ;04.12.2018;FEY;;LION;49;14500;7200;192;5;51;54;8400;3000;3690;3690;1;12980;26.04;28.44;29,5;BCS1388054;2;7
009779;01.11.2021;10:03:24;Stop          ;04.12.2018;FEY;;LION;49;14500;7200;128;5;51;54;8400;3000;3780;3731;1;12498;26.04;31.14;29,3;BCS1388054;2;7
009779;01.11.2021;10:18:11;Normalcharge  ;04.12.2018;FEY;;LION;49;14500;7200;192;5;51;54;8400;3000;3693;3693;1;12981;26.24;27.54;28,4;BCS1388054;2;7
009779;01.11.2021;10:18:48;Stop          ;04.12.2018;FEY;;LION;49;14500;7200;128;5;51;55;8400;3000;3753;3718;1;12565;26.24;29.04;28,2;BCS1388054;2;7
009779;01.11.2021;10:28:53;Normalcharge  ;04.12.2018;FEY;;LION;49;14500;7200;192;5;51;55;8400;3000;3694;3694;1;12981;26.24;27.84;28,2;BCS1388054;2;7
009779;01.11.2021;10:29:00;Stop          ;04.12.2018;FEY;;LION;49;14500;7200;192;5;51;55;8400;3000;3694;3693;1;12967;26.24;27.94;28,4;BCS1388054;2;7
009779;01.11.2021;11:53:39;Stop          ;04.12.2018;FEY;;LION;49;14500;7200;192;5;56;60;8400;3000;3747;3746;1;12980;28.34;30.54;32,5;BCS1388054;2;7
009779;07.02.2022;08:50:57;Normalcharge  ;04.12.2018;FEY;;LION;49;14500;7200;192;5;54;57;8400;3000;3705;3705;1;13010;22.14;22.24;25,1;BCS1388054;4;8
009779;07.02.2022;13:19:09;Stop          ;04.12.2018;FEY;;LION;49;14500;7200;224;5;95;100;8400;;4163;4162;1;13005;27.64;27.54;29,7;BCS1388054;4;8
009779;14.03.2022;12:14:36;Normalcharge  ;04.12.2018;FEY;;LION;49;14500;7200;224;5;93;99;8400;;4129;4128;1;13006;24.44;26.04;27,7;BCS1388054;3;13
009779;14.03.2022;12:18:51;Stop           ;04.12.2018;FEY;;LION;49;14500;7200;224;5;93;99;8400;;4129;4128;1;12972;24.54;26.84;29,5;BCS1388054;3;13