File: reader/Batterieverzeichnis_new/009707.txt
Serialnumber ; Date ; Time ; Action ; Date of Manufacture ; Manufacturer ; Battery Name ; Device-Chemistry ; Specification-Info ; Design-Capacity [mAh] ; Design-Voltage [mV] ; Battery Status ; Cycle Count ; SOC [%] ; Relativ SOC[%] ; Desired Voltage [mV]; Desired Current [mA]; Cell Voltage 1 [mV] ; Cell Voltage 2 [mV] ; Max_Error [%] ; Busvoltage[mV] ; Battery Temperature [°C] ; Charger Temperature [°C] ; Batterysystem ; Case ; PLace
009707;07.12.2020;04:14:40;Cycle         ;04.12.2018;FEY;;LION;49;14500;7200;192;1;93;93;8400;3000;4082;4083;1;13024;25.44;26.74;30,3;BCS1388054;7;16
009707;08.12.2020;16:20:20;Stop          ;04.12.2018;FEY;;LION;49;14500;7200;224;2;98;100;8400;;4153;4153;1;13024;27.44;28.04;31,9;BCS1388054;7;16
009707;21.02.2021;13:43:19;Normalcharge  ;04.12.2018;FEY;;LION;49;14500;7200;192;2;80;83;8400;3000;3970;3970;1;12996;23.44;26.44;27,5;BCS1388054;1;8
009707;22.02.2021;17:08:49;Stop          ;04.12.2018;FEY;;LION;49;14500;7200;224;2;97;100;8400;;4149;4149;1;12996;26.14;28.34;30,0;BCS1388054;1;8
009707;06.04.2021;08:39:10;Normalcharge  ;04.12.2018;FEY;;LION;49;14500;7200;224;2;95;99;8400;;4129;4129;1;13002;21.74;24.64;28,1;BCS1388054;5;10
009707;06.04.2021;08:39:58;Stop          ;04.12.2018;FEY;;LION;49;14500;7200;224;2;95;99;8400;;4129;4129;1;13002;21.84;24.84;28,4;BCS1388054;5;10
009707;08.04.2021;07:58:30;Normalcharge  ;04.12.2018;FEY;;LION;49;14500;7200;224;2;95;99;8400;;4129;4129;1;13007;25.04;24.84;26,4;BCS1388054;5;10
009707;08.04.2021;07:59:28;Stop          ;04.12.2018;FEY;;LION;49;14500;7200;224;2;95;99;8400;;4128;4129;1;13007;25.04;25.24;26,7;BCS1388054;5;10
009707;08.04.2021;10:36:12;Normalcharge  ;04.12.2018;FEY;;LION;49;14500;7200;224;2;95;99;8400;;4128;4129;1;13002;25.24;25.54;28,6;BCS1388054;5;10
009707;08.04.2021;10:37:06;Stop          ;04.12.2018;FEY;;LION;49;14500;7200;224;2;95;99;8400;;4128;4129;1;13001;25.24;25.84;29,0;BCS1388054;5;10
009707;18.04.2021;08:34:16;Normalcharge  ;04.12.2018;FEY;;LION;49;14500;7200;224;2;95;99;8400;;4125;4125;1;13002;25.94;26.24;28,1;BCS1388054;5;10
009707;18.04.2021;08:34:27;Stop          ;04.12.2018;FEY;;LION;49;14500;7200;224;2;95;99;8400;;4124;4125;1;13000;25.94;26.44;28,2;BCS1388054;5;10
009707;04.08.2021;07:24:41;Normalcharge  ;04.12.2018;FEY;;LION;49;14500;7200;192;2;92;96;8400;;4092;4093;1;12998;30.04;30.24;31,5;BCS1388054;5;10
009707;04.08.2021;07:25:23;Stop          ;04.12.2018;FEY;;LION;49;14500;7200;192;2;92;96;8400;;4092;4093;1;12996;30.04;30.44;31,6;BCS1388054;5;10
009707;22.08.2021;11:37:17;Normalcharge  ;04.12.2018;FEY;;LION;49;14500;7200;192;2;92;96;8400;;4087;4087;1;12986;22.54;29.74;31,9;BCS1388054;6;13
009707;22.08.2021;11:37:57;Stop          ;04.12.2018;FEY;;LION;49;14500;7200;192;2;92;96;8400;;4087;4088;1;12846;22.64;29.94;32,0;BCS1388054;6;13
009707;14.10.2021;12:39:52;Normalcharge  ;04.12.2018;FEY;;LION;49;14500;7200;192;2;69;71;8400;3000;3858;3858;1;12997;24.24;25.64;27,9;BCS1388054;1;10
009707;14.10.2021;12:41:14;Stop          ;04.12.2018;FEY;;LION;49;14500;7200;128;2;70;72;8400;3000;3950;3901;1;12467;24.34;29.04;28,2;BCS1388054;1;10
009707;07.02.2022;08:51:46;Normalcharge  ;04.12.2018;FEY;;LION;49;14500;7200;192;2;70;72;8400;3000;3833;3833;1;13019;22.14;22.64;25,6;BCS1388054;2;6
009707;07.02.2022;13:15:56;Stop          ;04.12.2018;FEY;;LION;49;14500;7200;224;2;98;100;8400;;4153;4153;1;13014;25.44;26.34;31,1;BCS1388054;2;6
009707;14.03.2022;12:14:39;Normalcharge  ;04.12.2018;FEY;;LION;49;14500;7200;224;2;96;99;8400;;4130;4130;1;12987;24.34;26.04;27,7;BCS1388054;2;7
009707;14.03.2022;12:15:13;Stop          ;04.12.2018;FEY;;LION;49;14500;7200;224;2;96;99;8400;;4129;4129;1;12986;24.34;26.14;27,9;BCS1388054;2;7
009707;14.03.2022;12:17:51;Normalcharge  ;04.12.2018;FEY;;LION;49;14500;7200;224;2;96;99;8400;;4130;4130;1;12984;24.34;26.64;29,2;BCS1388054;2;7
009707;14.03.2022;12:18:32;Stop          ;04.12.2018;FEY;;LION;49;14500;7200;224;2;96;99;8400;;4130;4130;1;12984;24.34;26.74;29,5;BCS1388054;2;7
009707;14.03.2022;12:19:02;Normalcharge  ;04.12.2018;FEY;;LION;49;14500;7200;224;2;96;99;8400;;4130;4130;1;12984;24.34;26.74;29,5;BCS1388054;2;7
009707;14.03.2022;12:19:06;Stop          ;04.12.2018;FEY;;LION;49;14500;7200;224;2;96;99;8400;;4130;4129;1;12984;24.34;26.74;29,6;BCS1388054;2;7