File: reader/Batterieverzeichnis_new/009759.txt
Serialnumber ; Date ; Time ; Action ; Date of Manufacture ; Manufacturer ; Battery Name ; Device-Chemistry ; Specification-Info ; Design-Capacity [mAh] ; Design-Voltage [mV] ; Battery Status ; Cycle Count ; SOC [%] ; Relativ SOC[%] ; Desired Voltage [mV]; Desired Current [mA]; Cell Voltage 1 [mV] ; Cell Voltage 2 [mV] ; Max_Error [%] ; Busvoltage[mV] ; Battery Temperature [°C] ; Charger Temperature [°C] ; Batterysystem ; Case ; PLace
009759;30.11.2020;09:42:55;Stop          ;04.12.2018;FEY;;LION;49;14500;7200;16576;3;98;98;;;4133;4133;1;13032;27.64;28.74;31,7;BCS1388054;7;14
009759;12.01.2021;04:16:00;Charge to 90% ;04.12.2018;FEY;;LION;49;14500;7200;16576;3;96;97;;;4117;4117;1;13013;23.04;21.44;23,0;BCS1388054;1;7
009759;12.01.2021;04:16:03;Stop          ;04.12.2018;FEY;;LION;49;14500;7200;16576;3;96;97;;;4117;4117;1;13013;23.04;22.54;23,0;BCS1388054;1;7
009759;12.01.2021;04:17:15;Charge to 90% ;04.12.2018;FEY;;LION;49;14500;7200;16576;3;96;97;;;4117;4117;1;13011;23.04;23.24;23,5;BCS1388054;1;7
009759;12.01.2021;04:55:18;Stop          ;04.12.2018;FEY;;LION;49;14500;7200;192;3;90;90;8400;3000;4051;4050;1;13006;26.54;29.94;31,7;BCS1388054;1;7
009759;12.01.2021;05:21:33;Cycle         ;04.12.2018;FEY;;LION;49;14500;7200;192;3;90;90;8400;3000;4056;4055;1;13007;26.74;27.84;30,6;BCS1388054;1;7
009759;13.01.2021;08:18:34;Stop          ;04.12.2018;FEY;;LION;49;14500;7200;224;4;97;100;8400;;4155;4155;1;13007;26.84;27.74;30,7;BCS1388054;1;7
009759;21.02.2021;13:43:19;Normalcharge  ;04.12.2018;FEY;;LION;49;14500;7200;192;5;62;64;8400;3000;3785;3785;1;13001;23.64;25.04;27,5;BCS1388054;1;17
009759;22.02.2021;17:08:49;Stop          ;04.12.2018;FEY;;LION;49;14500;7200;224;5;98;100;8400;;4148;4149;1;13002;25.94;26.94;30,0;BCS1388054;1;17
009759;06.04.2021;08:38:50;Normalcharge  ;04.12.2018;FEY;;LION;49;14500;7200;224;5;96;99;8400;;4128;4128;1;13010;20.94;25.04;28,1;BCS1388054;3;5
009759;06.04.2021;08:39:42;Stop           ;04.12.2018;FEY;;LION;49;14500;7200;224;5;96;99;8400;;4128;4128;1;13008;21.04;25.24;28,2;BCS1388054;3;5
009759;08.04.2021;07:58:01;Normalcharge  ;04.12.2018;FEY;;LION;49;14500;7200;224;5;96;99;8400;;4128;4128;1;13011;25.24;25.24;26,4;BCS1388054;3;5
009759;08.04.2021;07:59:40;Stop           ;04.12.2018;FEY;;LION;49;14500;7200;224;5;96;99;8400;;4128;4128;1;13008;25.24;25.94;26,8;BCS1388054;3;5
009759;08.04.2021;10:35:05;Normalcharge  ;04.12.2018;FEY;;LION;49;14500;7200;224;5;96;99;8400;;4128;4128;1;13010;25.44;25.54;28,1;BCS1388054;3;5
009759;08.04.2021;10:36:56;Stop           ;04.12.2018;FEY;;LION;49;14500;7200;224;5;96;99;8400;;4128;4128;1;13008;25.54;26.34;29,0;BCS1388054;3;5
009759;18.04.2021;08:33:50;Normalcharge  ;04.12.2018;FEY;;LION;49;14500;7200;224;5;96;99;8400;;4124;4124;1;13009;26.14;26.64;27,8;BCS1388054;3;5
009759;18.04.2021;08:33:58;Stop           ;04.12.2018;FEY;;LION;49;14500;7200;224;5;96;99;8400;;4124;4124;1;13008;26.14;26.74;27,9;BCS1388054;3;5
009759;04.08.2021;07:24:50;Normalcharge  ;04.12.2018;FEY;;LION;49;14500;7200;192;5;94;96;8400;;4093;4093;1;13003;30.34;30.84;31,6;BCS1388054;3;5
009759;04.08.2021;07:25:37;Stop           ;04.12.2018;FEY;;LION;49;14500;7200;192;5;94;96;8400;;4093;4093;1;13003;30.34;31.04;31,7;BCS1388054;3;5
009759;22.08.2021;11:37:12;Normalcharge  ;04.12.2018;FEY;;LION;49;14500;7200;192;5;94;96;8400;;4088;4088;1;13022;23.24;29.24;31,9;BCS1388054;7;2
009759;22.08.2021;11:37:48;Stop          ;04.12.2018;FEY;;LION;49;14500;7200;192;5;94;96;8400;;4088;4088;1;13004;23.24;29.54;31,9;BCS1388054;7;2
009759;12.10.2021;12:59:04;Normalcharge  ;04.12.2018;FEY;;LION;49;14500;7200;192;5;88;91;8400;3000;4043;4043;1;13033;23.64;26.04;28,5;BCS1388054;7;14
009759;12.10.2021;12:59:37;Stop          ;04.12.2018;FEY;;LION;49;14500;7200;192;5;88;91;8400;3000;4043;4044;1;12944;23.74;27.24;28,6;BCS1388054;7;14
009759;14.10.2021;12:40:13;Normalcharge  ;04.12.2018;FEY;;LION;49;14500;7200;192;5;88;91;8400;3000;4043;4043;1;12999;23.54;25.64;27,9;BCS1388054;5;14
009759;14.10.2021;12:41:50;Stop          ;04.12.2018;FEY;;LION;49;14500;7200;128;5;88;91;8400;3000;4119;4089;1;12639;23.64;29.24;28,5;BCS1388054;5;14
009759;14.03.2022;12:14:16;Normalcharge  ;04.12.2018;FEY;;LION;49;14500;7200;192;6;24;25;8400;3000;3503;3504;1;13027;24.14;24.74;27,4;BCS1388054;7;13
009759;14.03.2022;12:18:09;Stop          ;04.12.2018;FEY;;LION;49;14500;7200;128;6;25;25;8400;3000;3605;3560;1;12807;24.34;31.04;29,3;BCS1388054;7;13
009759;05.04.2022;09:15:59;Charge to 60% ;04.12.2018;FEY;;LION;49;14500;7200;192;6;25;26;8400;3000;3509;3509;1;13014;25.44;26.84;26,7;BCS1388054;6;17
009759;05.04.2022;12:05:14;Stop          ;04.12.2018;FEY;;LION;49;14500;7200;192;6;58;60;8400;3000;3751;3754;1;12992;28.04;29.44;28,9;BCS1388054;6;17
009759;17.05.2022;08:54:36;Normalcharge  ;04.12.2018;FEY;;LION;49;14500;7200;192;6;56;58;8400;3000;3724;3725;1;13020;28.84;30.04;31,0;BCS1388054;7;3
009759;17.05.2022;13:41:52;Stop          ;04.12.2018;FEY;;LION;49;14500;7200;224;6;98;100;8400;;4159;4160;1;12947;33.14;34.14;34,0;BCS1388054;7;3