File: reader/Batterieverzeichnis_new/009721.txt
Serialnumber ; Date ; Time ; Action ; Date of Manufacture ; Manufacturer ; Battery Name ; Device-Chemistry ; Specification-Info ; Design-Capacity [mAh] ; Design-Voltage [mV] ; Battery Status ; Cycle Count ; SOC [%] ; Relativ SOC[%] ; Desired Voltage [mV]; Desired Current [mA]; Cell Voltage 1 [mV] ; Cell Voltage 2 [mV] ; Max_Error [%] ; Busvoltage[mV] ; Battery Temperature [°C] ; Charger Temperature [°C] ; Batterysystem ; Case ; PLace
009721;12.01.2021;04:16:00;Charge to 90% ;04.12.2018;FEY;;LION;49;14500;7200;16576;2;94;96;;;4113;4113;1;13007;23.24;19.04;23,0;BCS1388054;1;18
009721;12.01.2021;04:16:03;Stop          ;04.12.2018;FEY;;LION;49;14500;7200;16576;2;94;96;;;4113;4113;1;13009;23.24;22.74;23,0;BCS1388054;1;18
009721;12.01.2021;04:17:15;Charge to 90% ;04.12.2018;FEY;;LION;49;14500;7200;16576;2;94;96;;;4113;4113;1;13005;23.34;23.34;23,5;BCS1388054;1;18
009721;12.01.2021;04:55:18;Stop          ;04.12.2018;FEY;;LION;49;14500;7200;192;2;88;90;8400;3000;4063;4063;1;12998;27.64;29.24;31,7;BCS1388054;1;18
009721;12.01.2021;05:21:33;Cycle         ;04.12.2018;FEY;;LION;49;14500;7200;192;2;88;90;8400;3000;4066;4065;1;13000;27.04;27.54;30,6;BCS1388054;1;18
009721;13.01.2021;08:18:34;Stop          ;04.12.2018;FEY;;LION;49;14500;7200;224;4;97;100;8400;;4155;4157;1;13000;26.64;27.34;30,7;BCS1388054;1;18
009721;21.02.2021;13:45:29;Normalcharge  ;04.12.2018;FEY;;LION;49;14500;7200;192;5;28;29;8400;3000;3534;3536;1;13013;23.24;23.64;27,8;BCS1388054;6;11
009721;06.04.2021;08:38:40;Normalcharge  ;04.12.2018;FEY;;LION;49;14500;7200;224;5;96;99;8400;;4128;4128;1;12996;21.54;25.54;28,1;BCS1388054;1;9
009721;06.04.2021;08:39:29;Stop          ;04.12.2018;FEY;;LION;49;14500;7200;224;5;96;99;8400;;4128;4128;1;12994;21.64;25.94;28,2;BCS1388054;1;9
009721;08.04.2021;07:57:52;Normalcharge  ;04.12.2018;FEY;;LION;49;14500;7200;224;5;96;99;8400;;4128;4128;1;12997;25.44;25.54;26,3;BCS1388054;1;9
009721;08.04.2021;07:59:50;Stop          ;04.12.2018;FEY;;LION;49;14500;7200;224;5;96;99;8400;;4128;4128;1;12940;25.54;26.54;26,8;BCS1388054;1;9
009721;08.04.2021;10:34:35;Normalcharge  ;04.12.2018;FEY;;LION;49;14500;7200;224;5;96;99;8400;;4128;4128;1;12990;26.64;27.74;28,1;BCS1388054;1;9
009721;08.04.2021;10:36:49;Stop          ;04.12.2018;FEY;;LION;49;14500;7200;224;5;96;99;8400;;4128;4128;1;12883;26.64;27.84;28,9;BCS1388054;1;9
009721;18.04.2021;08:33:24;Normalcharge  ;04.12.2018;FEY;;LION;49;14500;7200;192;5;96;98;8400;;4124;4124;1;12994;26.44;26.94;27,7;BCS1388054;1;9
009721;18.04.2021;08:33:29;Stop          ;04.12.2018;FEY;;LION;49;14500;7200;192;5;96;98;8400;;4124;4124;1;12990;26.44;26.94;27,7;BCS1388054;1;9
009721;04.08.2021;07:25:01;Normalcharge  ;04.12.2018;FEY;;LION;49;14500;7200;192;5;94;96;8400;;4093;4093;1;12986;30.84;31.24;31,5;BCS1388054;1;9
009721;04.08.2021;07:25:57;Stop          ;04.12.2018;FEY;;LION;49;14500;7200;192;5;94;96;8400;;4093;4093;1;12774;30.84;31.54;31,9;BCS1388054;1;9
009721;22.08.2021;11:07:51;Normalcharge  ;04.12.2018;FEY;;LION;49;14500;7200;192;5;94;96;8400;;4088;4088;1;13005;23.04;30.04;32,0;BCS1388054;1;16
009721;22.08.2021;11:08:24;Stop          ;04.12.2018;FEY;;LION;49;14500;7200;192;5;94;96;8400;;4088;4089;1;12599;23.14;30.04;32,4;BCS1388054;1;16
009721;14.10.2021;12:40:03;Normalcharge  ;04.12.2018;FEY;;LION;49;14500;7200;192;5;92;94;8400;3000;4076;4076;1;12994;25.34;26.64;27,9;BCS1388054;3;8
009721;14.10.2021;12:41:32;Stop           ;04.12.2018;FEY;;LION;49;14500;7200;128;5;92;94;8400;3000;4144;4117;1;12611;25.44;29.34;28,4;BCS1388054;3;8
009721;14.03.2022;12:14:30;Normalcharge  ;04.12.2018;FEY;;LION;49;14500;7200;192;5;87;89;8400;3000;4021;4022;1;13002;24.64;24.94;27,5;BCS1388054;4;14
009721;14.03.2022;12:18:42;Stop          ;04.12.2018;FEY;;LION;49;14500;7200;128;5;87;90;8400;3000;4124;4086;1;12795;24.84;30.74;29,5;BCS1388054;4;14