File: reader/Batterieverzeichnis_new/009730.txt
Serialnumber ; Date ; Time ; Action ; Date of Manufacture ; Manufacturer ; Battery Name ; Device-Chemistry ; Specification-Info ; Design-Capacity [mAh] ; Design-Voltage [mV] ; Battery Status ; Cycle Count ; SOC [%] ; Relativ SOC[%] ; Desired Voltage [mV]; Desired Current [mA]; Cell Voltage 1 [mV] ; Cell Voltage 2 [mV] ; Max_Error [%] ; Busvoltage[mV] ; Battery Temperature [°C] ; Charger Temperature [°C] ; Batterysystem ; Case ; PLace
009730;07.02.2021;08:47:00;Normalcharge  ;04.12.2018;FEY;;LION;49;14500;7200;192;2;91;92;8400;3000;4073;4074;1;13000;23.34;25.54;29,2;BCS1388054;4;15
009730;07.02.2021;11:52:20;Stop          ;04.12.2018;FEY;;LION;49;14500;7200;224;2;99;100;8400;;4153;4154;1;13001;25.74;27.14;29,7;BCS1388054;4;15
009730;03.03.2021;08:17:21;Normalcharge  ;04.12.2018;FEY;;LION;49;14500;7200;192;2;91;94;8400;3000;4079;4080;1;13010;23.04;22.64;23,5;BCS1388054;3;4
009730;04.03.2021;07:53:39;Stop           ;04.12.2018;FEY;;LION;49;14500;7200;224;2;98;100;8400;;4149;4150;1;13004;26.34;27.14;31,5;BCS1388054;3;4
009730;04.04.2021;11:49:55;Normalcharge  ;04.12.2018;FEY;;LION;49;14500;7200;192;3;52;53;8400;3000;3681;3680;1;13028;24.74;25.74;27,5;BCS1388054;7;2
009730;04.04.2021;11:51:17;Stop          ;04.12.2018;FEY;;LION;49;14500;7200;128;3;52;54;8400;3000;3769;3719;1;12764;24.74;28.94;28,4;BCS1388054;7;2
009730;05.04.2021;09:38:11;Charge to 60% ;04.12.2018;FEY;;LION;49;14500;7200;192;3;52;54;8400;3000;3683;3682;1;13018;24.84;25.84;26,3;BCS1388054;4;4
009730;05.04.2021;10:13:52;Stop          ;04.12.2018;FEY;;LION;49;14500;7200;192;3;57;60;8400;3000;3756;3751;1;13013;27.34;28.74;32,1;BCS1388054;4;4
009730;22.08.2021;11:37:30;Normalcharge  ;04.12.2018;FEY;;LION;49;14500;7200;192;3;53;54;8400;3000;3671;3671;1;12996;20.94;27.64;31,9;BCS1388054;3;16
009730;22.08.2021;11:38:19;Stop           ;04.12.2018;FEY;;LION;49;14500;7200;128;3;53;55;8400;3000;3758;3710;1;12550;21.04;29.64;32,1;BCS1388054;3;16
009730;25.08.2021;08:15:15;Ladung auf 60% ;04.12.2018;FEY;;LION;49;14500;7200;192;3;53;55;8400;3000;3674;3673;1;12997;30.34;30.94;33,4;BCS1388054;3;16
009730;25.08.2021;08:40:44;Stop           ;04.12.2018;FEY;;LION;49;14500;7200;192;3;58;60;8400;3000;3733;3731;1;12995;32.44;35.24;36,1;BCS1388054;3;16