File: reader/Batterieverzeichnis_new/009701.txt
Serialnumber ; Date ; Time ; Action ; Date of Manufacture ; Manufacturer ; Battery Name ; Device-Chemistry ; Specification-Info ; Design-Capacity [mAh] ; Design-Voltage [mV] ; Battery Status ; Cycle Count ; SOC [%] ; Relativ SOC[%] ; Desired Voltage [mV]; Desired Current [mA]; Cell Voltage 1 [mV] ; Cell Voltage 2 [mV] ; Max_Error [%] ; Busvoltage[mV] ; Battery Temperature [°C] ; Charger Temperature [°C] ; Batterysystem ; Case ; PLace
009701;07.12.2020;04:14:32;Cycle         ;04.12.2018;FEY;;LION;49;14500;7200;192;2;98;98;8400;;4137;4137;1;13011;25.74;28.74;30,3;BCS1388054;5;15
009701;08.12.2020;16:20:01;Stop          ;04.12.2018;FEY;;LION;49;14500;7200;192;2;98;98;8400;;4135;4135;1;13009;27.84;30.44;31,7;BCS1388054;5;15
009701;12.01.2021;04:17:40;Charge to 90% ;04.12.2018;FEY;;LION;49;14500;7200;192;2;97;97;8400;;4123;4122;1;13012;23.14;23.94;23,6;BCS1388054;6;11
009701;12.01.2021;05:00:55;Stop          ;04.12.2018;FEY;;LION;49;14500;7200;192;2;90;90;8400;3000;4059;4059;1;13008;27.14;28.64;31,2;BCS1388054;6;11
009701;12.01.2021;05:21:57;Cycle         ;04.12.2018;FEY;;LION;49;14500;7200;192;2;90;90;8400;3000;4062;4062;1;13007;27.14;27.64;30,4;BCS1388054;6;11
009701;13.01.2021;08:31:18;Stop          ;04.12.2018;FEY;;LION;49;14500;7200;224;3;97;100;8400;;4156;4157;1;13008;26.94;27.74;31,1;BCS1388054;6;11
009701;21.02.2021;13:45:28;Normalcharge  ;04.12.2018;FEY;;LION;49;14500;7200;224;3;96;99;8400;;4132;4133;1;13005;23.34;22.74;27,8;BCS1388054;6;1
009701;06.04.2021;08:39:21;Normalcharge  ;04.12.2018;FEY;;LION;49;14500;7200;192;3;96;98;8400;;4117;4117;1;13031;21.64;25.24;28,1;BCS1388054;7;1
009701;06.04.2021;08:40:08;Stop          ;04.12.2018;FEY;;LION;49;14500;7200;192;3;96;98;8400;;4117;4117;1;12957;21.64;25.74;28,5;BCS1388054;7;1
009701;08.04.2021;07:59:03;Normalcharge  ;04.12.2018;FEY;;LION;49;14500;7200;192;3;95;98;8400;;4116;4117;1;13036;25.24;25.14;26,4;BCS1388054;7;1
009701;08.04.2021;07:59:16;Stop          ;04.12.2018;FEY;;LION;49;14500;7200;192;3;95;98;8400;;4116;4116;1;13031;25.24;25.24;26,6;BCS1388054;7;1
009701;08.04.2021;10:36:43;Normalcharge  ;04.12.2018;FEY;;LION;49;14500;7200;192;3;95;98;8400;;4116;4117;1;13030;25.54;26.74;28,9;BCS1388054;7;1
009701;08.04.2021;10:37:15;Stop          ;04.12.2018;FEY;;LION;49;14500;7200;192;3;95;98;8400;;4117;4117;1;12965;25.54;27.04;29,2;BCS1388054;7;1
009701;18.04.2021;08:34:46;Normalcharge  ;04.12.2018;FEY;;LION;49;14500;7200;192;3;95;97;8400;;4114;4114;1;13030;26.14;27.34;28,2;BCS1388054;7;1
009701;18.04.2021;08:34:54;Stop          ;04.12.2018;FEY;;LION;49;14500;7200;192;3;95;97;8400;;4114;4114;1;13027;26.14;27.44;28,4;BCS1388054;7;1
009701;04.08.2021;07:24:29;Normalcharge  ;04.12.2018;FEY;;LION;49;14500;7200;192;3;94;96;8400;;4086;4087;1;13027;30.14;30.44;31,5;BCS1388054;7;1
009701;04.08.2021;07:25:08;Stop          ;04.12.2018;FEY;;LION;49;14500;7200;192;3;94;96;8400;;4086;4087;1;12980;30.14;31.04;31,6;BCS1388054;7;1
009701;14.10.2021;12:39:51;Normalcharge  ;04.12.2018;FEY;;LION;49;14500;7200;192;3;73;76;8400;3000;3889;3890;1;12993;25.44;27.24;27,9;BCS1388054;1;8
009701;14.10.2021;12:41:14;Stop          ;04.12.2018;FEY;;LION;49;14500;7200;128;3;73;76;8400;3000;3977;3932;1;12481;25.44;30.44;28,2;BCS1388054;1;8
009701;07.02.2022;08:51:51;Normalcharge  ;04.12.2018;FEY;;LION;49;14500;7200;192;3;73;76;8400;3000;3867;3868;1;13009;22.54;23.04;25,6;BCS1388054;1;7
009701;07.02.2022;13:16:30;Stop          ;04.12.2018;FEY;;LION;49;14500;7200;224;3;96;100;8400;;4152;4155;1;13005;25.74;27.04;31,2;BCS1388054;1;7
009701;14.03.2022;12:14:26;Normalcharge  ;04.12.2018;FEY;;LION;49;14500;7200;224;3;95;99;8400;;4130;4132;1;13015;24.14;25.74;27,5;BCS1388054;5;5
009701;14.03.2022;12:18:30;Stop          ;04.12.2018;FEY;;LION;49;14500;7200;224;3;95;99;8400;;4130;4132;1;13012;24.24;26.74;29,5;BCS1388054;5;5