File: reader/Batterieverzeichnis_new/009745.txt
Serialnumber ; Date ; Time ; Action ; Date of Manufacture ; Manufacturer ; Battery Name ; Device-Chemistry ; Specification-Info ; Design-Capacity [mAh] ; Design-Voltage [mV] ; Battery Status ; Cycle Count ; SOC [%] ; Relativ SOC[%] ; Desired Voltage [mV]; Desired Current [mA]; Cell Voltage 1 [mV] ; Cell Voltage 2 [mV] ; Max_Error [%] ; Busvoltage[mV] ; Battery Temperature [°C] ; Charger Temperature [°C] ; Batterysystem ; Case ; PLace
009745;07.12.2020;04:14:28;Cycle         ;04.12.2018;FEY;;LION;49;14500;7200;192;2;97;98;8400;;4135;4136;1;12990;25.54;26.74;30,3;BCS1388054;4;11
009745;08.12.2020;16:19:56;Stop          ;04.12.2018;FEY;;LION;49;14500;7200;192;2;97;98;8400;;4133;4134;1;12989;27.64;28.04;31,9;BCS1388054;4;11
009745;12.01.2021;04:17:47;Charge to 90% ;04.12.2018;FEY;;LION;49;14500;7200;192;2;96;97;8400;;4121;4121;1;13025;22.94;23.54;23,8;BCS1388054;7;7
009745;12.01.2021;04:57:19;Stop          ;04.12.2018;FEY;;LION;49;14500;7200;192;2;89;90;8400;3000;4058;4057;1;13019;26.74;28.94;31,5;BCS1388054;7;7
009745;12.01.2021;05:22:01;Cycle         ;04.12.2018;FEY;;LION;49;14500;7200;192;2;89;90;8400;3000;4062;4061;1;13020;26.74;27.74;30,4;BCS1388054;7;7
009745;13.01.2021;08:19:29;Stop          ;04.12.2018;FEY;;LION;49;14500;7200;224;3;97;100;8400;;4156;4156;1;13018;26.54;27.74;30,7;BCS1388054;7;7
009745;21.02.2021;13:45:29;Normalcharge  ;04.12.2018;FEY;;LION;49;14500;7200;192;4;46;47;8400;3000;3639;3638;1;13020;22.54;23.84;27,8;BCS1388054;6;15
009745;06.04.2021;08:38:46;Normalcharge  ;04.12.2018;FEY;;LION;49;14500;7200;224;4;97;99;8400;;4129;4130;1;13010;20.34;25.64;28,1;BCS1388054;2;4
009745;06.04.2021;08:39:36;Stop          ;04.12.2018;FEY;;LION;49;14500;7200;224;4;97;99;8400;;4129;4130;1;13009;20.44;26.04;28,2;BCS1388054;2;4
009745;08.04.2021;07:57:57;Normalcharge  ;04.12.2018;FEY;;LION;49;14500;7200;224;4;97;99;8400;;4129;4130;1;13010;25.14;25.74;26,3;BCS1388054;2;4
009745;08.04.2021;07:59:45;Stop          ;04.12.2018;FEY;;LION;49;14500;7200;224;4;97;99;8400;;4129;4130;1;13007;25.14;26.74;26,8;BCS1388054;2;4
009745;08.04.2021;10:35:00;Normalcharge  ;04.12.2018;FEY;;LION;49;14500;7200;224;4;97;99;8400;;4129;4130;1;13010;25.54;26.14;28,1;BCS1388054;2;4
009745;08.04.2021;10:36:53;Stop          ;04.12.2018;FEY;;LION;49;14500;7200;224;4;97;99;8400;;4129;4130;1;13007;25.54;27.24;28,9;BCS1388054;2;4
009745;18.04.2021;08:33:36;Normalcharge  ;04.12.2018;FEY;;LION;49;14500;7200;192;4;96;98;8400;;4125;4126;1;13007;26.04;27.24;27,7;BCS1388054;2;4
009745;18.04.2021;08:33:44;Stop          ;04.12.2018;FEY;;LION;49;14500;7200;192;4;96;98;8400;;4125;4126;1;13006;26.04;27.24;27,8;BCS1388054;2;4
009745;04.08.2021;07:24:55;Normalcharge  ;04.12.2018;FEY;;LION;49;14500;7200;192;4;94;96;8400;;4093;4093;1;12999;30.34;31.54;31,5;BCS1388054;2;4
009745;04.08.2021;07:25:47;Stop          ;04.12.2018;FEY;;LION;49;14500;7200;192;4;94;96;8400;;4092;4093;1;12997;30.34;32.04;31,9;BCS1388054;2;4
009745;22.08.2021;11:08:09;Normalcharge  ;04.12.2018;FEY;;LION;49;14500;7200;192;4;90;92;8400;3000;4056;4056;1;13012;22.24;28.54;32,1;BCS1388054;5;17
009745;22.08.2021;11:08:42;Stop          ;04.12.2018;FEY;;LION;49;14500;7200;128;4;90;92;8400;3000;4081;4069;1;12846;22.24;29.84;32,5;BCS1388054;5;17
009745;01.11.2021;09:52:05;Normalcharge  ;04.12.2018;FEY;;LION;49;14500;7200;192;4;88;90;8400;3000;4032;4033;1;12993;25.24;25.74;26,3;BCS1388054;4;2
009745;01.11.2021;09:53:34;Stop          ;04.12.2018;FEY;;LION;49;14500;7200;128;4;88;90;8400;3000;4111;4077;1;12621;25.24;29.44;27,1;BCS1388054;4;2
009745;01.11.2021;10:02:14;Normalcharge  ;04.12.2018;FEY;;LION;49;14500;7200;192;4;88;90;8400;3000;4035;4035;1;12991;25.34;28.74;29,5;BCS1388054;4;2
009745;01.11.2021;10:03:16;Stop          ;04.12.2018;FEY;;LION;49;14500;7200;128;4;88;90;8400;3000;4108;4075;1;12592;25.34;30.84;29,3;BCS1388054;4;2
009745;28.12.2021;09:01:25;Normalcharge  ;04.12.2018;FEY;;LION;49;14500;7200;192;4;82;84;8400;3000;3966;3966;1;13006;23.44;23.04;25,3;BCS1388054;3;11
009745;28.12.2021;09:02:24;Stop           ;04.12.2018;FEY;;LION;49;14500;7200;128;4;82;84;8400;3000;4064;4016;1;12551;23.44;25.24;25,8;BCS1388054;3;11
009745;14.03.2022;12:14:21;Normalcharge  ;04.12.2018;FEY;;LION;49;14500;7200;192;5;55;56;8400;3000;3710;3710;1;13004;23.64;25.34;27,5;BCS1388054;6;9
009745;14.03.2022;12:18:18;Stop          ;04.12.2018;FEY;;LION;49;14500;7200;128;5;56;57;8400;3000;3815;3768;1;12822;23.94;30.04;29,3;BCS1388054;6;9
009745;17.05.2022;08:54:30;Normalcharge  ;04.12.2018;FEY;;LION;49;14500;7200;192;5;55;56;8400;3000;3702;3702;1;12996;28.24;30.34;31,0;BCS1388054;6;14
009745;17.05.2022;13:41:44;Stop          ;04.12.2018;FEY;;LION;49;14500;7200;224;5;99;100;8400;;4160;4161;1;12922;33.24;35.64;33,9;BCS1388054;6;14