File: reader/Batterieverzeichnis_new/009841.txt
Serialnumber ; Date ; Time ; Action ; Date of Manufacture ; Manufacturer ; Battery Name ; Device-Chemistry ; Specification-Info ; Design-Capacity [mAh] ; Design-Voltage [mV] ; Battery Status ; Cycle Count ; SOC [%] ; Relativ SOC[%] ; Desired Voltage [mV]; Desired Current [mA]; Cell Voltage 1 [mV] ; Cell Voltage 2 [mV] ; Max_Error [%] ; Busvoltage[mV] ; Battery Temperature [°C] ; Charger Temperature [°C] ; Batterysystem ; Case ; PLace
009841;07.12.2020;04:14:21;Cycle         ;04.12.2018;FEY;;LION;49;14500;7200;16576;3;97;99;;;4155;4159;1;12997;25.74;27.64;30,3;BCS1388054;2;12
009841;08.12.2020;16:19:44;Stop          ;04.12.2018;FEY;;LION;49;14500;7200;16576;3;97;99;;;4153;4156;1;12997;27.44;28.94;31,9;BCS1388054;2;12
009841;07.02.2021;08:46:48;Normalcharge  ;04.12.2018;FEY;;LION;49;14500;7200;16576;3;96;97;;;4126;4128;1;13001;23.44;26.74;29,2;BCS1388054;2;2
009841;07.02.2021;11:52:12;Stop          ;04.12.2018;FEY;;LION;49;14500;7200;16576;3;96;97;;;4126;4128;1;13001;25.64;28.14;29,7;BCS1388054;2;2
009841;03.03.2021;08:17:17;Normalcharge  ;04.12.2018;FEY;;LION;49;14500;7200;16576;3;94;96;;;4108;4111;1;13010;22.94;23.64;23,5;BCS1388054;2;2
009841;04.03.2021;07:53:45;Stop          ;04.12.2018;FEY;;LION;49;14500;7200;16576;3;94;96;;;4108;4110;1;13002;26.24;28.74;31,6;BCS1388054;2;2
009841;04.04.2021;11:50:33;Normalcharge  ;04.12.2018;FEY;;LION;49;14500;7200;192;3;50;51;8400;3000;3669;3670;1;13004;24.84;27.24;27,9;BCS1388054;2;2
009841;04.04.2021;11:51:48;Stop          ;04.12.2018;FEY;;LION;49;14500;7200;128;3;50;51;8400;3000;3754;3709;1;12614;24.94;30.24;28,6;BCS1388054;2;2
009841;05.04.2021;09:38:17;Charge to 60% ;04.12.2018;FEY;;LION;49;14500;7200;192;3;50;51;8400;3000;3670;3671;1;13012;24.94;25.94;26,4;BCS1388054;5;9
009841;05.04.2021;10:34:50;Charge to 60% ;04.12.2018;FEY;;LION;49;14500;7200;192;3;59;60;8400;3000;3766;3768;1;12913;27.94;29.34;32,4;BCS1388054;5;9
009841;05.04.2021;13:16:09;Stop          ;04.12.2018;FEY;;LION;49;14500;7200;192;3;59;60;8400;3000;3763;3765;1;13009;27.64;29.24;32,2;BCS1388054;5;9
009841;22.08.2021;11:37:21;Normalcharge  ;04.12.2018;FEY;;LION;49;14500;7200;192;3;39;40;8400;3000;3602;3603;1;13000;21.54;28.64;31,9;BCS1388054;5;6
009841;22.08.2021;11:38:04;Stop          ;04.12.2018;FEY;;LION;49;14500;7200;128;3;39;40;8400;3000;3667;3632;1;12747;21.74;29.94;32,0;BCS1388054;5;6
009841;25.08.2021;08:15:02;Charge to 60% ;04.12.2018;FEY;;LION;49;14500;7200;192;3;39;40;8400;3000;3605;3605;1;12999;30.14;30.84;33,2;BCS1388054;5;6
009841;25.08.2021;13:03:31;Stop          ;04.12.2018;FEY;;LION;49;14500;7200;192;3;58;60;8400;3000;3753;3755;1;12996;32.34;32.74;36,6;BCS1388054;5;6
009841;28.12.2021;09:01:25;Normalcharge  ;04.12.2018;FEY;;LION;49;14500;7200;192;4;33;33;8400;3000;3561;3561;1;13015;23.34;24.44;25,3;BCS1388054;3;3
009841;28.12.2021;09:02:24;Stop           ;04.12.2018;FEY;;LION;49;14500;7200;128;4;33;33;8400;3000;3649;3599;1;12577;23.44;26.84;25,8;BCS1388054;3;3
009841;28.12.2021;09:21:48;Charge to 60% ;04.12.2018;FEY;;LION;49;14500;7200;192;4;33;33;8400;3000;3562;3563;1;13016;23.44;15.94;26,1;BCS1388054;4;18
009841;28.12.2021;12:53:01;Stop          ;04.12.2018;FEY;;LION;49;14500;7200;192;4;59;60;8400;3000;3746;3747;1;12992;24.74;25.04;27,8;BCS1388054;4;18
009841;07.02.2022;08:50:37;Normalcharge  ;04.12.2018;FEY;;LION;49;14500;7200;192;4;57;58;8400;3000;3723;3724;1;13015;22.04;21.84;25,0;BCS1388054;7;9
009841;07.02.2022;14:21:07;Stop          ;04.12.2018;FEY;;LION;49;14500;7200;224;4;99;100;8400;;4156;4157;1;13008;25.24;25.84;28,9;BCS1388054;7;9
009841;13.03.2022;12:10:09;Normalcharge  ;04.12.2018;FEY;;LION;49;14500;7200;192;4;63;65;8400;3000;3792;3792;1;13009;23.94;25.04;25,6;BCS1388054;3;13
009841;13.03.2022;12:10:50;Stop           ;04.12.2018;FEY;;LION;49;14500;7200;128;4;63;65;8400;3000;3824;3808;1;12763;23.94;26.54;25,7;BCS1388054;3;13
009841;14.03.2022;10:33:46;Normalcharge  ;04.12.2018;FEY;;LION;49;14500;7200;192;4;63;65;8400;3000;3792;3792;1;13002;24.04;24.54;25,1;BCS1388054;6;1
009841;14.03.2022;10:38:06;Stop          ;04.12.2018;FEY;;LION;49;14500;7200;128;4;64;66;8400;3000;3897;3852;1;12676;24.24;30.34;28,1;BCS1388054;6;1
009841;17.05.2022;08:54:25;Normalcharge  ;04.12.2018;FEY;;LION;49;14500;7200;192;4;62;64;8400;3000;3764;3764;1;13002;28.64;30.24;31,0;BCS1388054;5;4
009841;17.05.2022;13:10:23;Stop          ;04.12.2018;FEY;;LION;49;14500;7200;224;4;98;100;8400;;4161;4164;1;13000;32.84;33.64;34,0;BCS1388054;5;4