File: reader/Batterieverzeichnis_new/009845.txt
Serialnumber ; Date ; Time ; Action ; Date of Manufacture ; Manufacturer ; Battery Name ; Device-Chemistry ; Specification-Info ; Design-Capacity [mAh] ; Design-Voltage [mV] ; Battery Status ; Cycle Count ; SOC [%] ; Relativ SOC[%] ; Desired Voltage [mV]; Desired Current [mA]; Cell Voltage 1 [mV] ; Cell Voltage 2 [mV] ; Max_Error [%] ; Busvoltage[mV] ; Battery Temperature [°C] ; Charger Temperature [°C] ; Batterysystem ; Case ; PLace
009845;30.11.2020;09:44:38;Stop          ;03.12.2018;FEY;;LION;49;14500;7200;16576;3;100;100;;;4137;4135;1;12997;27.84;29.74;31,4;BCS1388054;2;17
009845;07.02.2021;08:46:48;Normalcharge  ;03.12.2018;FEY;;LION;49;14500;7200;16576;3;97;97;;;4112;4110;1;13002;23.74;26.14;29,2;BCS1388054;2;5
009845;07.02.2021;11:52:12;Stop          ;03.12.2018;FEY;;LION;49;14500;7200;16576;3;97;97;;;4112;4111;1;13005;25.84;27.24;29,7;BCS1388054;2;5
009845;03.03.2021;08:17:21;Normalcharge  ;03.12.2018;FEY;;LION;49;14500;7200;16576;3;94;94;;;4077;4076;1;13008;23.24;23.24;23,5;BCS1388054;3;1
009845;04.03.2021;07:53:39;Stop           ;03.12.2018;FEY;;LION;49;14500;7200;16576;3;94;94;;;4077;4076;1;12999;26.54;28.44;31,5;BCS1388054;3;1
009845;04.04.2021;11:50:28;Normalcharge  ;03.12.2018;FEY;;LION;49;14500;7200;16576;3;93;93;;;4070;4068;1;13006;25.04;26.94;27,9;BCS1388054;3;13
009845;04.04.2021;11:51:43;Stop           ;03.12.2018;FEY;;LION;49;14500;7200;16576;3;93;93;;;4070;4068;1;12794;25.04;27.14;28,6;BCS1388054;3;13
009845;22.08.2021;11:37:30;Normalcharge  ;03.12.2018;FEY;;LION;49;14500;7200;192;3;81;81;8400;3000;3919;3917;1;13012;21.14;28.04;31,9;BCS1388054;3;14
009845;22.08.2021;11:38:19;Stop           ;03.12.2018;FEY;;LION;49;14500;7200;128;3;81;81;8400;3000;4010;3960;1;12574;21.34;30.14;32,1;BCS1388054;3;14
009845;12.10.2021;12:58:56;Normalcharge  ;03.12.2018;FEY;;LION;49;14500;7200;192;3;81;81;8400;3000;3908;3907;1;12993;23.64;27.54;28,5;BCS1388054;6;10
009845;12.10.2021;12:59:25;Stop          ;03.12.2018;FEY;;LION;49;14500;7200;128;3;81;81;8400;3000;3911;3908;1;12961;23.64;28.54;28,6;BCS1388054;6;10
009845;14.10.2021;12:40:08;Normalcharge  ;03.12.2018;FEY;;LION;49;14500;7200;192;3;78;78;8400;3000;3886;3885;1;12998;25.34;26.14;27,9;BCS1388054;4;17
009845;14.10.2021;12:41:44;Stop          ;03.12.2018;FEY;;LION;49;14500;7200;128;3;78;78;8400;3000;3981;3931;1;12644;25.44;29.94;28,4;BCS1388054;4;17