File: reader/Batterieverzeichnis_new/009800.txt
Serialnumber ; Date ; Time ; Action ; Date of Manufacture ; Manufacturer ; Battery Name ; Device-Chemistry ; Specification-Info ; Design-Capacity [mAh] ; Design-Voltage [mV] ; Battery Status ; Cycle Count ; SOC [%] ; Relativ SOC[%] ; Desired Voltage [mV]; Desired Current [mA]; Cell Voltage 1 [mV] ; Cell Voltage 2 [mV] ; Max_Error [%] ; Busvoltage[mV] ; Battery Temperature [°C] ; Charger Temperature [°C] ; Batterysystem ; Case ; PLace
009800;12.01.2021;04:17:28;Ladung auf 90% ;03.12.2018;FEY;;LION;49;14500;7200;224;4;97;99;8400;;4129;4131;1;13009;23.24;23.44;23,6;BCS1388054;3;9
009800;12.01.2021;04:57:30;Stop           ;03.12.2018;FEY;;LION;49;14500;7200;192;4;89;90;8400;3000;4035;4036;1;13006;27.14;31.64;31,5;BCS1388054;3;9
009800;12.01.2021;05:21:45;Cycle          ;03.12.2018;FEY;;LION;49;14500;7200;192;4;89;90;8400;3000;4048;4051;1;13006;27.24;28.14;30,4;BCS1388054;3;9
009800;13.01.2021;08:23:25;Stop           ;03.12.2018;FEY;;LION;49;14500;7200;224;5;98;100;8400;;4156;4157;1;13004;27.44;28.14;31,4;BCS1388054;3;9
009800;21.02.2021;13:43:19;Normalcharge  ;03.12.2018;FEY;;LION;49;14500;7200;192;5;78;79;8400;3000;3935;3935;1;13003;23.74;26.54;27,5;BCS1388054;1;3
009800;22.02.2021;17:08:49;Stop          ;03.12.2018;FEY;;LION;49;14500;7200;224;5;98;100;8400;;4148;4149;1;13004;26.24;28.24;30,0;BCS1388054;1;3
009800;06.04.2021;08:39:16;Normalcharge  ;03.12.2018;FEY;;LION;49;14500;7200;224;5;97;99;8400;;4128;4129;1;13002;21.54;24.44;28,1;BCS1388054;6;12
009800;06.04.2021;08:40:03;Stop          ;03.12.2018;FEY;;LION;49;14500;7200;224;5;97;99;8400;;4128;4129;1;12981;21.64;24.54;28,5;BCS1388054;6;12
009800;08.04.2021;07:58:44;Normalcharge  ;03.12.2018;FEY;;LION;49;14500;7200;224;5;96;99;8400;;4128;4129;1;13008;25.34;24.24;26,4;BCS1388054;6;12
009800;08.04.2021;07:59:23;Stop          ;03.12.2018;FEY;;LION;49;14500;7200;224;5;96;99;8400;;4128;4128;1;13006;25.34;24.84;26,7;BCS1388054;6;12
009800;08.04.2021;10:36:16;Normalcharge  ;03.12.2018;FEY;;LION;49;14500;7200;224;5;96;99;8400;;4128;4128;1;13005;25.54;25.34;28,6;BCS1388054;6;12
009800;08.04.2021;10:37:11;Stop          ;03.12.2018;FEY;;LION;49;14500;7200;224;5;96;99;8400;;4128;4128;1;12983;25.54;25.54;29,2;BCS1388054;6;12
009800;18.04.2021;08:34:33;Normalcharge  ;03.12.2018;FEY;;LION;49;14500;7200;224;5;96;99;8400;;4124;4125;1;13003;26.24;26.14;28,2;BCS1388054;6;12
009800;18.04.2021;08:34:41;Stop          ;03.12.2018;FEY;;LION;49;14500;7200;224;5;96;99;8400;;4125;4125;1;13003;26.24;26.04;28,2;BCS1388054;6;12
009800;04.08.2021;07:24:35;Normalcharge  ;03.12.2018;FEY;;LION;49;14500;7200;192;5;94;96;8400;;4094;4094;1;13000;30.24;29.94;31,5;BCS1388054;6;12
009800;04.08.2021;07:25:17;Stop          ;03.12.2018;FEY;;LION;49;14500;7200;192;5;94;96;8400;;4094;4094;1;12985;30.24;30.14;31,6;BCS1388054;6;12
009800;22.08.2021;11:37:21;Normalcharge  ;03.12.2018;FEY;;LION;49;14500;7200;192;5;88;91;8400;3000;4044;4044;1;13008;21.64;28.44;31,9;BCS1388054;5;16
009800;22.08.2021;11:38:04;Stop          ;03.12.2018;FEY;;LION;49;14500;7200;128;5;88;91;8400;3000;4110;4079;1;12758;21.74;29.84;32,0;BCS1388054;5;16