File: reader/Batterieverzeichnis_new/009848.txt
Serialnumber ; Date ; Time ; Action ; Date of Manufacture ; Manufacturer ; Battery Name ; Device-Chemistry ; Specification-Info ; Design-Capacity [mAh] ; Design-Voltage [mV] ; Battery Status ; Cycle Count ; SOC [%] ; Relativ SOC[%] ; Desired Voltage [mV]; Desired Current [mA]; Cell Voltage 1 [mV] ; Cell Voltage 2 [mV] ; Max_Error [%] ; Busvoltage[mV] ; Battery Temperature [°C] ; Charger Temperature [°C] ; Batterysystem ; Case ; PLace
009848;07.12.2020;04:14:28;Cycle         ;03.12.2018;FEY;;LION;49;14500;7200;16576;2;98;98;;;4152;4154;1;13001;25.54;27.04;30,3;BCS1388054;4;12
009848;08.12.2020;16:19:56;Stop          ;03.12.2018;FEY;;LION;49;14500;7200;16576;2;98;98;;;4149;4151;1;13000;27.44;28.04;31,9;BCS1388054;4;12
009848;12.01.2021;04:17:33;Charge to 90% ;03.12.2018;FEY;;LION;49;14500;7200;16576;2;97;97;;;4133;4134;1;13020;22.84;23.44;23,6;BCS1388054;4;4
009848;12.01.2021;04:57:16;Stop          ;03.12.2018;FEY;;LION;49;14500;7200;192;2;90;90;8400;3000;4060;4061;1;13015;27.04;28.94;31,6;BCS1388054;4;4
009848;12.01.2021;05:21:49;Cycle         ;03.12.2018;FEY;;LION;49;14500;7200;192;2;90;90;8400;3000;4065;4066;1;13016;27.04;27.44;30,4;BCS1388054;4;4
009848;13.01.2021;08:19:19;Stop          ;03.12.2018;FEY;;LION;49;14500;7200;224;3;97;100;8400;;4155;4156;1;13016;26.84;27.54;30,7;BCS1388054;4;4
009848;21.02.2021;13:45:29;Normalcharge  ;03.12.2018;FEY;;LION;49;14500;7200;224;3;96;99;8400;;4131;4132;1;13001;22.74;23.54;27,8;BCS1388054;6;10
009848;06.04.2021;08:38:40;Normalcharge  ;03.12.2018;FEY;;LION;49;14500;7200;192;3;95;98;8400;;4114;4115;1;12998;21.04;25.14;28,1;BCS1388054;1;5
009848;06.04.2021;08:39:29;Stop          ;03.12.2018;FEY;;LION;49;14500;7200;192;3;95;98;8400;;4115;4115;1;12995;21.04;25.54;28,2;BCS1388054;1;5
009848;08.04.2021;07:57:52;Normalcharge  ;03.12.2018;FEY;;LION;49;14500;7200;192;3;95;98;8400;;4115;4115;1;12997;25.04;25.24;26,3;BCS1388054;1;5
009848;08.04.2021;07:59:50;Stop          ;03.12.2018;FEY;;LION;49;14500;7200;192;3;95;98;8400;;4114;4115;1;12935;25.04;26.04;26,8;BCS1388054;1;5
009848;08.04.2021;10:34:34;Normalcharge  ;03.12.2018;FEY;;LION;49;14500;7200;192;3;95;98;8400;;4115;4115;1;12992;25.84;26.54;28,1;BCS1388054;1;5
009848;08.04.2021;10:36:49;Stop          ;03.12.2018;FEY;;LION;49;14500;7200;192;3;95;98;8400;;4115;4116;1;12876;25.84;26.94;28,9;BCS1388054;1;5
009848;18.04.2021;08:33:24;Normalcharge  ;03.12.2018;FEY;;LION;49;14500;7200;192;3;95;97;8400;;4112;4112;1;12995;25.94;26.54;27,7;BCS1388054;1;5
009848;18.04.2021;08:33:29;Stop          ;03.12.2018;FEY;;LION;49;14500;7200;192;3;95;97;8400;;4112;4112;1;12993;25.94;26.54;27,7;BCS1388054;1;5
009848;04.08.2021;07:25:01;Normalcharge  ;03.12.2018;FEY;;LION;49;14500;7200;192;3;93;96;8400;;4083;4084;1;12989;30.34;30.84;31,5;BCS1388054;1;5
009848;04.08.2021;07:25:57;Stop          ;03.12.2018;FEY;;LION;49;14500;7200;192;3;93;96;8400;;4083;4084;1;12779;30.34;31.04;31,9;BCS1388054;1;5
009848;22.08.2021;11:08:08;Normalcharge  ;03.12.2018;FEY;;LION;49;14500;7200;192;4;49;50;8400;3000;3652;3653;1;12995;22.34;29.74;32,1;BCS1388054;5;7
009848;22.08.2021;11:08:41;Stop          ;03.12.2018;FEY;;LION;49;14500;7200;128;4;49;50;8400;3000;3685;3668;1;12854;22.44;31.04;32,5;BCS1388054;5;7
009848;25.08.2021;08:13:04;Normalcharge  ;03.12.2018;FEY;;LION;49;14500;7200;192;4;49;50;8400;3000;3655;3656;1;13014;30.14;31.34;32,4;BCS1388054;7;3
009848;25.08.2021;08:13:16;Stop          ;03.12.2018;FEY;;LION;49;14500;7200;192;4;49;50;8400;3000;3655;3656;1;13004;30.14;31.54;32,5;BCS1388054;7;3
009848;25.08.2021;08:14:41;Charge to 60% ;03.12.2018;FEY;;LION;49;14500;7200;192;4;49;50;8400;3000;3655;3656;1;13014;30.14;31.74;33,0;BCS1388054;7;3
009848;25.08.2021;08:37:46;Stop          ;03.12.2018;FEY;;LION;49;14500;7200;128;4;53;55;8400;3000;3785;3738;1;12757;31.74;38.74;36,1;BCS1388054;7;3
009848;25.08.2021;08:38:03;Charge to 60% ;03.12.2018;FEY;;LION;49;14500;7200;128;4;53;55;8400;3000;3705;3709;1;13012;31.84;37.94;36,1;BCS1388054;7;3
009848;25.08.2021;13:26:35;Stop          ;03.12.2018;FEY;;LION;49;14500;7200;192;4;58;60;8400;3000;3739;3741;1;13013;32.44;34.14;36,4;BCS1388054;7;3
009848;01.11.2021;09:51:55;Normalcharge  ;03.12.2018;FEY;;LION;49;14500;7200;192;4;55;57;8400;3000;3710;3712;1;12996;25.54;25.64;26,3;BCS1388054;6;7
009848;01.11.2021;09:53:45;Stop          ;03.12.2018;FEY;;LION;49;14500;7200;128;4;55;57;8400;3000;3801;3757;1;12622;25.64;29.64;27,3;BCS1388054;6;7
009848;01.11.2021;10:02:24;Normalcharge  ;03.12.2018;FEY;;LION;49;14500;7200;192;4;55;57;8400;3000;3715;3716;1;12990;25.74;27.94;29,5;BCS1388054;6;7
009848;01.11.2021;10:03:07;Stop          ;03.12.2018;FEY;;LION;49;14500;7200;128;4;55;57;8400;3000;3799;3753;1;12621;25.84;29.54;29,3;BCS1388054;6;7
009848;01.11.2021;10:27:30;Normalcharge  ;03.12.2018;FEY;;LION;49;14500;7200;192;4;55;57;8400;3000;3715;3717;1;12993;26.04;26.44;27,8;BCS1388054;6;7
009848;01.11.2021;10:29:18;Stop          ;03.12.2018;FEY;;LION;49;14500;7200;128;4;56;57;8400;3000;3805;3762;1;12624;26.14;30.44;28,6;BCS1388054;6;7
009848;01.11.2021;14:25:59;Stop          ;03.12.2018;FEY;;LION;49;14500;7200;192;4;58;60;8400;3000;3746;3748;1;12989;28.24;29.84;32,6;BCS1388054;6;7
009848;07.02.2022;08:50:52;Normalcharge  ;03.12.2018;FEY;;LION;49;14500;7200;192;4;54;56;8400;3000;3707;3709;1;13020;21.84;22.34;25,0;BCS1388054;5;18
009848;07.02.2022;13:22:36;Stop          ;03.12.2018;FEY;;LION;49;14500;7200;224;4;97;100;8400;;4157;4159;1;13014;25.54;26.94;28,5;BCS1388054;5;18