File: reader/Batterieverzeichnis_new/009809.txt
Serialnumber ; Date ; Time ; Action ; Date of Manufacture ; Manufacturer ; Battery Name ; Device-Chemistry ; Specification-Info ; Design-Capacity [mAh] ; Design-Voltage [mV] ; Battery Status ; Cycle Count ; SOC [%] ; Relativ SOC[%] ; Desired Voltage [mV]; Desired Current [mA]; Cell Voltage 1 [mV] ; Cell Voltage 2 [mV] ; Max_Error [%] ; Busvoltage[mV] ; Battery Temperature [°C] ; Charger Temperature [°C] ; Batterysystem ; Case ; PLace
009809;07.12.2020;04:14:32;Cycle         ;03.12.2018;FEY;;LION;49;14500;7200;192;3;96;98;8400;;4145;4143;1;13003;24.94;26.74;30,3;BCS1388054;5;10
009809;08.12.2020;16:20:01;Stop          ;03.12.2018;FEY;;LION;49;14500;7200;192;3;96;98;8400;;4143;4141;1;13001;27.04;28.24;31,7;BCS1388054;5;10
009809;07.02.2021;08:46:53;Normalcharge  ;03.12.2018;FEY;;LION;49;14500;7200;192;3;94;97;8400;;4119;4118;1;12995;22.84;26.04;29,2;BCS1388054;3;8
009809;07.02.2021;11:52:16;Stop           ;03.12.2018;FEY;;LION;49;14500;7200;192;3;94;97;8400;;4119;4118;1;12994;25.24;27.64;29,7;BCS1388054;3;8
009809;03.03.2021;08:17:40;Normalcharge  ;03.12.2018;FEY;;LION;49;14500;7200;192;4;68;70;8400;3000;3864;3863;1;12995;22.44;24.24;23,6;BCS1388054;6;13
009809;03.03.2021;11:56:52;Stop          ;03.12.2018;FEY;;LION;49;14500;7200;224;4;98;100;8400;;4158;4158;1;12989;27.94;30.44;31,7;BCS1388054;6;13
009809;04.04.2021;11:50:33;Normalcharge  ;03.12.2018;FEY;;LION;49;14500;7200;192;4;51;54;8400;3000;3688;3689;1;13002;24.24;27.24;27,9;BCS1388054;2;10
009809;04.04.2021;11:51:48;Stop          ;03.12.2018;FEY;;LION;49;14500;7200;128;4;51;54;8400;3000;3778;3728;1;12589;24.24;29.94;28,6;BCS1388054;2;10
009809;05.04.2021;09:38:17;Charge to 60% ;03.12.2018;FEY;;LION;49;14500;7200;192;4;51;54;8400;3000;3690;3691;1;13012;24.34;26.04;26,4;BCS1388054;5;4
009809;05.04.2021;10:34:50;Charge to 60% ;03.12.2018;FEY;;LION;49;14500;7200;192;4;57;60;8400;3000;3761;3762;1;12917;26.64;29.24;32,4;BCS1388054;5;4
009809;05.04.2021;13:16:09;Stop          ;03.12.2018;FEY;;LION;49;14500;7200;192;4;57;60;8400;3000;3759;3760;1;13007;26.84;29.24;32,2;BCS1388054;5;4
009809;22.08.2021;11:37:21;Normalcharge  ;03.12.2018;FEY;;LION;49;14500;7200;192;4;52;54;8400;3000;3688;3688;1;13010;20.84;29.94;31,9;BCS1388054;5;5
009809;22.08.2021;11:38:04;Stop          ;03.12.2018;FEY;;LION;49;14500;7200;128;4;52;54;8400;3000;3759;3718;1;12761;20.94;31.44;32,0;BCS1388054;5;5
009809;25.08.2021;08:15:02;Charge to 60% ;03.12.2018;FEY;;LION;49;14500;7200;192;4;52;54;8400;3000;3690;3690;1;13009;29.64;32.64;33,2;BCS1388054;5;5
009809;25.08.2021;13:03:31;Stop          ;03.12.2018;FEY;;LION;49;14500;7200;192;4;57;60;8400;3000;3749;3750;1;13007;31.94;34.84;36,6;BCS1388054;5;5
009809;01.11.2021;10:18:20;Normalcharge  ;03.12.2018;FEY;;LION;49;14500;7200;192;4;55;57;8400;3000;3717;3717;1;13006;25.34;27.04;28,4;BCS1388054;4;1
009809;01.11.2021;10:19:02;Stop          ;03.12.2018;FEY;;LION;49;14500;7200;128;4;55;57;8400;3000;3793;3749;1;12599;25.34;28.74;28,2;BCS1388054;4;1
009809;01.11.2021;10:28:22;Normalcharge  ;03.12.2018;FEY;;LION;49;14500;7200;192;4;55;57;8400;3000;3718;3718;1;13006;25.44;27.34;27,9;BCS1388054;4;1
009809;01.11.2021;10:29:09;Stop          ;03.12.2018;FEY;;LION;49;14500;7200;128;4;55;57;8400;3000;3804;3756;1;12596;25.44;29.34;28,5;BCS1388054;4;1
009809;01.11.2021;10:32:29;Charge to 60% ;03.12.2018;FEY;;LION;49;14500;7200;192;4;55;57;8400;3000;3720;3720;1;13004;25.44;27.94;29,7;BCS1388054;4;1
009809;01.11.2021;15:19:33;Stop          ;03.12.2018;FEY;;LION;49;14500;7200;192;4;57;60;8400;3000;3750;3751;1;13005;27.74;30.24;32,7;BCS1388054;4;1
009809;09.02.2022;08:16:56;Normalcharge  ;03.12.2018;FEY;;LION;49;14500;7200;192;4;54;56;8400;3000;3710;3711;1;13013;21.74;23.54;23,1;BCS1388054;2;5
009809;09.02.2022;12:43:52;Stop          ;03.12.2018;FEY;;LION;49;14500;7200;224;4;96;100;8400;;4161;4161;1;13006;25.24;27.14;29,9;BCS1388054;2;5