File: reader/Batterieverzeichnis_new/009843.txt
Serialnumber ; Date ; Time ; Action ; Date of Manufacture ; Manufacturer ; Battery Name ; Device-Chemistry ; Specification-Info ; Design-Capacity [mAh] ; Design-Voltage [mV] ; Battery Status ; Cycle Count ; SOC [%] ; Relativ SOC[%] ; Desired Voltage [mV]; Desired Current [mA]; Cell Voltage 1 [mV] ; Cell Voltage 2 [mV] ; Max_Error [%] ; Busvoltage[mV] ; Battery Temperature [°C] ; Charger Temperature [°C] ; Batterysystem ; Case ; PLace
009843;07.02.2021;08:46:43;Normalcharge  ;03.12.2018;FEY;;LION;49;14500;7200;192;5;95;97;8400;;4111;4111;1;12990;24.04;25.94;29,2;BCS1388054;1;12
009843;07.02.2021;11:52:07;Stop          ;03.12.2018;FEY;;LION;49;14500;7200;192;5;95;97;8400;;4111;4112;1;12991;25.84;26.54;29,7;BCS1388054;1;12
009843;03.03.2021;08:17:21;Normalcharge  ;03.12.2018;FEY;;LION;49;14500;7200;192;5;88;91;8400;3000;4051;4052;1;13016;23.34;22.54;23,5;BCS1388054;3;17
009843;04.03.2021;07:53:40;Stop           ;03.12.2018;FEY;;LION;49;14500;7200;224;5;98;100;8400;;4146;4148;1;13009;26.64;27.14;31,5;BCS1388054;3;17
009843;04.04.2021;11:50:39;Normalcharge  ;03.12.2018;FEY;;LION;49;14500;7200;192;6;53;55;8400;3000;3695;3696;1;12996;25.14;25.74;28,1;BCS1388054;1;11
009843;04.04.2021;11:51:54;Stop          ;03.12.2018;FEY;;LION;49;14500;7200;128;6;53;55;8400;3000;3784;3737;1;12550;25.14;28.24;28,8;BCS1388054;1;11
009843;05.04.2021;09:38:00;Ladung auf 60% ;03.12.2018;FEY;;LION;49;14500;7200;192;6;53;55;8400;3000;3698;3699;1;13009;25.34;26.64;26,3;BCS1388054;3;13
009843;05.04.2021;10:06:07;Stop           ;03.12.2018;FEY;;LION;49;14500;7200;192;6;57;60;8400;3000;3761;3761;1;13006;27.34;31.14;31,4;BCS1388054;3;13
009843;22.08.2021;11:08:13;Normalcharge  ;03.12.2018;FEY;;LION;49;14500;7200;192;6;53;55;8400;3000;3701;3702;1;12999;30.04;29.64;32,2;BCS1388054;6;5
009843;22.08.2021;11:08:46;Stop          ;03.12.2018;FEY;;LION;49;14500;7200;128;6;53;55;8400;3000;3732;3715;1;12811;30.04;30.74;32,5;BCS1388054;6;5
009843;25.08.2021;08:13:04;Normalcharge  ;03.12.2018;FEY;;LION;49;14500;7200;192;6;53;55;8400;3000;3700;3702;1;13029;30.64;30.74;32,4;BCS1388054;7;14
009843;25.08.2021;08:13:16;Stop          ;03.12.2018;FEY;;LION;49;14500;7200;192;6;53;55;8400;3000;3700;3702;1;13018;30.64;30.94;32,5;BCS1388054;7;14
009843;25.08.2021;08:14:41;Charge to 60% ;03.12.2018;FEY;;LION;49;14500;7200;192;6;53;55;8400;3000;3701;3702;1;13028;30.64;31.14;33,0;BCS1388054;7;14
009843;25.08.2021;08:37:46;Stop          ;03.12.2018;FEY;;LION;49;14500;7200;192;6;57;60;8400;3000;3757;3758;1;12755;32.24;36.14;36,1;BCS1388054;7;14
009843;25.08.2021;08:38:03;Charge to 60% ;03.12.2018;FEY;;LION;49;14500;7200;192;6;57;60;8400;3000;3757;3758;1;13026;32.24;35.94;36,1;BCS1388054;7;14
009843;25.08.2021;13:26:36;Stop          ;03.12.2018;FEY;;LION;49;14500;7200;192;6;57;60;8400;3000;3751;3752;1;13026;33.14;34.04;36,4;BCS1388054;7;14
009843;01.11.2021;09:52:05;Normalcharge  ;03.12.2018;FEY;;LION;49;14500;7200;192;6;54;56;8400;3000;3708;3709;1;13006;24.44;24.74;26,3;BCS1388054;4;8
009843;01.11.2021;09:53:35;Stop          ;03.12.2018;FEY;;LION;49;14500;7200;128;6;55;56;8400;3000;3799;3754;1;12615;24.54;28.24;27,1;BCS1388054;4;8
009843;01.11.2021;10:02:14;Normalcharge  ;03.12.2018;FEY;;LION;49;14500;7200;192;6;55;56;8400;3000;3712;3714;1;13002;24.84;27.24;29,5;BCS1388054;4;8
009843;01.11.2021;10:03:16;Stop          ;03.12.2018;FEY;;LION;49;14500;7200;128;6;55;57;8400;3000;3799;3755;1;12598;24.94;29.44;29,3;BCS1388054;4;8
009843;01.11.2021;10:18:21;Normalcharge  ;03.12.2018;FEY;;LION;49;14500;7200;192;6;55;57;8400;3000;3714;3716;1;13002;25.34;26.44;28,4;BCS1388054;4;8
009843;01.11.2021;10:19:03;Stop          ;03.12.2018;FEY;;LION;49;14500;7200;128;6;55;57;8400;3000;3792;3750;1;12583;25.34;28.14;28,2;BCS1388054;4;8
009843;01.11.2021;10:28:22;Normalcharge  ;03.12.2018;FEY;;LION;49;14500;7200;192;6;55;57;8400;3000;3715;3716;1;13003;25.54;26.64;27,9;BCS1388054;4;8
009843;01.11.2021;10:29:09;Stop          ;03.12.2018;FEY;;LION;49;14500;7200;128;6;55;57;8400;3000;3799;3755;1;12577;25.54;28.64;28,5;BCS1388054;4;8
009843;01.11.2021;10:32:29;Charge to 60% ;03.12.2018;FEY;;LION;49;14500;7200;192;6;55;57;8400;3000;3716;3718;1;13002;25.64;27.24;29,7;BCS1388054;4;8
009843;01.11.2021;15:19:33;Stop          ;03.12.2018;FEY;;LION;49;14500;7200;192;6;58;60;8400;3000;3752;3753;1;13000;28.84;29.54;32,7;BCS1388054;4;8
009843;09.02.2022;08:16:46;Normalcharge  ;03.12.2018;FEY;;LION;49;14500;7200;192;6;57;58;8400;3000;3712;3713;1;13005;22.44;22.24;23,1;BCS1388054;3;12
009843;09.02.2022;12:49:54;Stop           ;03.12.2018;FEY;;LION;49;14500;7200;224;6;97;100;8400;;4159;4160;1;13002;25.84;25.54;29,9;BCS1388054;3;12
009843;14.03.2022;10:34:44;Normalcharge  ;03.12.2018;FEY;;LION;49;14500;7200;224;6;96;99;8400;;4129;4131;1;12996;24.54;26.14;26,0;BCS1388054;1;8
009843;14.03.2022;10:38:55;Stop          ;03.12.2018;FEY;;LION;49;14500;7200;224;6;96;99;8400;;4130;4131;1;12967;24.54;27.04;28,2;BCS1388054;1;8