File: reader/Batterieverzeichnis_new/009830.txt
Serialnumber ; Date ; Time ; Action ; Date of Manufacture ; Manufacturer ; Battery Name ; Device-Chemistry ; Specification-Info ; Design-Capacity [mAh] ; Design-Voltage [mV] ; Battery Status ; Cycle Count ; SOC [%] ; Relativ SOC[%] ; Desired Voltage [mV]; Desired Current [mA]; Cell Voltage 1 [mV] ; Cell Voltage 2 [mV] ; Max_Error [%] ; Busvoltage[mV] ; Battery Temperature [°C] ; Charger Temperature [°C] ; Batterysystem ; Case ; PLace
009830;07.12.2020;04:14:21;Cycle         ;03.12.2018;FEY;;LION;49;14500;7200;224;2;97;99;8400;;4125;4125;1;12999;25.34;27.94;30,3;BCS1388054;2;1
009830;08.12.2020;16:19:44;Stop          ;03.12.2018;FEY;;LION;49;14500;7200;224;3;98;100;8400;;4152;4153;1;13001;27.34;29.54;31,9;BCS1388054;2;1
009830;03.03.2021;08:17:40;Normalcharge  ;03.12.2018;FEY;;LION;49;14500;7200;192;4;69;72;8400;3000;3863;3863;1;13006;22.74;22.84;23,6;BCS1388054;6;4
009830;03.03.2021;11:56:52;Stop          ;03.12.2018;FEY;;LION;49;14500;7200;224;4;98;100;8400;;4157;4158;1;13000;27.64;28.44;31,7;BCS1388054;6;4
009830;06.04.2021;08:38:46;Normalcharge  ;03.12.2018;FEY;;LION;49;14500;7200;224;4;96;99;8400;;4133;4133;1;12999;20.34;24.94;28,1;BCS1388054;2;13
009830;06.04.2021;08:39:36;Stop          ;03.12.2018;FEY;;LION;49;14500;7200;224;4;96;99;8400;;4132;4133;1;12998;20.44;25.24;28,2;BCS1388054;2;13
009830;08.04.2021;07:57:57;Normalcharge  ;03.12.2018;FEY;;LION;49;14500;7200;224;4;96;99;8400;;4132;4133;1;13000;24.84;25.14;26,3;BCS1388054;2;13
009830;08.04.2021;07:59:45;Stop          ;03.12.2018;FEY;;LION;49;14500;7200;224;4;96;99;8400;;4132;4132;1;12998;24.84;25.84;26,8;BCS1388054;2;13
009830;08.04.2021;10:35:00;Normalcharge  ;03.12.2018;FEY;;LION;49;14500;7200;224;4;96;99;8400;;4132;4132;1;13000;25.34;25.54;28,1;BCS1388054;2;13
009830;08.04.2021;10:36:53;Stop          ;03.12.2018;FEY;;LION;49;14500;7200;224;4;96;99;8400;;4132;4133;1;12997;25.34;26.34;28,9;BCS1388054;2;13
009830;18.04.2021;08:33:36;Normalcharge  ;03.12.2018;FEY;;LION;49;14500;7200;224;4;96;99;8400;;4128;4128;1;12997;25.74;26.44;27,7;BCS1388054;2;13
009830;18.04.2021;08:33:44;Stop          ;03.12.2018;FEY;;LION;49;14500;7200;224;4;96;99;8400;;4128;4128;1;12998;25.74;26.44;27,8;BCS1388054;2;13
009830;04.08.2021;07:24:55;Normalcharge  ;03.12.2018;FEY;;LION;49;14500;7200;192;4;93;96;8400;;4096;4096;1;12991;30.04;30.84;31,5;BCS1388054;2;13
009830;04.08.2021;07:25:47;Stop          ;03.12.2018;FEY;;LION;49;14500;7200;192;4;93;96;8400;;4095;4096;1;12989;30.04;31.04;31,9;BCS1388054;2;13
009830;22.08.2021;11:07:59;Normalcharge  ;03.12.2018;FEY;;LION;49;14500;7200;192;4;68;70;8400;3000;3846;3847;1;12998;22.14;29.44;32,1;BCS1388054;3;9
009830;22.08.2021;11:08:33;Stop           ;03.12.2018;FEY;;LION;49;14500;7200;128;4;68;70;8400;3000;3906;3873;1;12683;22.24;30.54;32,4;BCS1388054;3;9