File: reader/Batterieverzeichnis_new/009855.txt
Serialnumber ; Date ; Time ; Action ; Date of Manufacture ; Manufacturer ; Battery Name ; Device-Chemistry ; Specification-Info ; Design-Capacity [mAh] ; Design-Voltage [mV] ; Battery Status ; Cycle Count ; SOC [%] ; Relativ SOC[%] ; Desired Voltage [mV]; Desired Current [mA]; Cell Voltage 1 [mV] ; Cell Voltage 2 [mV] ; Max_Error [%] ; Busvoltage[mV] ; Battery Temperature [°C] ; Charger Temperature [°C] ; Batterysystem ; Case ; PLace
009855;07.12.2020;04:14:28;Cycle         ;03.12.2018;FEY;;LION;49;14500;7200;16576;2;98;98;;;4143;4142;1;13015;25.64;27.94;30,3;BCS1388054;4;16
009855;08.12.2020;16:19:56;Stop          ;03.12.2018;FEY;;LION;49;14500;7200;16576;2;98;98;;;4141;4140;1;13015;27.74;29.34;31,9;BCS1388054;4;16
009855;07.02.2021;08:46:48;Normalcharge  ;03.12.2018;FEY;;LION;49;14500;7200;16576;2;96;97;;;4118;4117;1;12984;23.64;26.34;29,2;BCS1388054;2;7
009855;07.02.2021;11:52:12;Stop          ;03.12.2018;FEY;;LION;49;14500;7200;16576;2;96;97;;;4119;4118;1;12988;25.94;27.94;29,7;BCS1388054;2;7
009855;03.03.2021;08:17:40;Normalcharge  ;03.12.2018;FEY;;LION;49;14500;7200;192;3;69;70;8400;3000;3856;3856;1;13006;23.24;23.64;23,6;BCS1388054;6;14
009855;03.03.2021;11:56:52;Stop          ;03.12.2018;FEY;;LION;49;14500;7200;224;3;99;100;8400;;4157;4157;1;12999;28.84;30.24;31,7;BCS1388054;6;14
009855;04.04.2021;11:50:10;Normalcharge  ;03.12.2018;FEY;;LION;49;14500;7200;224;3;98;99;8400;;4133;4133;1;12994;25.04;25.54;27,8;BCS1388054;5;13
009855;04.04.2021;11:51:30;Stop          ;03.12.2018;FEY;;LION;49;14500;7200;224;3;98;99;8400;;4133;4133;1;12674;25.04;25.94;28,5;BCS1388054;5;13
009855;22.08.2021;11:37:25;Normalcharge  ;03.12.2018;FEY;;LION;49;14500;7200;192;3;75;78;8400;3000;3907;3907;1;13001;21.14;28.44;31,9;BCS1388054;4;7
009855;22.08.2021;11:38:13;Stop          ;03.12.2018;FEY;;LION;49;14500;7200;128;3;75;78;8400;3000;3974;3939;1;12642;21.34;30.34;32,1;BCS1388054;4;7
009855;14.10.2021;12:40:13;Normalcharge  ;03.12.2018;FEY;;LION;49;14500;7200;192;3;75;78;8400;3000;3896;3896;1;13015;23.44;25.54;27,9;BCS1388054;5;17
009855;14.10.2021;12:41:50;Stop          ;03.12.2018;FEY;;LION;49;14500;7200;128;3;76;79;8400;3000;3993;3945;1;12630;23.54;29.44;28,5;BCS1388054;5;17