File: reader/Batterieverzeichnis_new/009808.txt
Serialnumber ; Date ; Time ; Action ; Date of Manufacture ; Manufacturer ; Battery Name ; Device-Chemistry ; Specification-Info ; Design-Capacity [mAh] ; Design-Voltage [mV] ; Battery Status ; Cycle Count ; SOC [%] ; Relativ SOC[%] ; Desired Voltage [mV]; Desired Current [mA]; Cell Voltage 1 [mV] ; Cell Voltage 2 [mV] ; Max_Error [%] ; Busvoltage[mV] ; Battery Temperature [°C] ; Charger Temperature [°C] ; Batterysystem ; Case ; PLace
009808;29.11.2020;04:25:09;Cycle         ;03.12.2018;FEY;;LION;49;14500;7200;192;3;82;81;8400;3000;3942;3943;1;12995;25.14;25.34;25,6;BCS1388054;1;1
009808;12.01.2021;04:17:28;Ladung auf 90% ;03.12.2018;FEY;;LION;49;14500;7200;192;4;96;98;8400;;4128;4127;1;13005;23.04;22.44;23,6;BCS1388054;3;11
009808;12.01.2021;04:57:30;Stop           ;03.12.2018;FEY;;LION;49;14500;7200;192;4;85;90;8400;3000;4042;4041;1;13001;27.24;28.34;31,5;BCS1388054;3;11
009808;12.01.2021;05:21:45;Cycle          ;03.12.2018;FEY;;LION;49;14500;7200;192;4;85;90;8400;3000;4050;4050;1;13001;27.24;26.64;30,4;BCS1388054;3;11
009808;13.01.2021;08:23:25;Stop           ;03.12.2018;FEY;;LION;49;14500;7200;224;5;96;100;8400;;4156;4156;1;13001;27.04;26.54;31,4;BCS1388054;3;11
009808;21.02.2021;13:43:32;Normalcharge  ;03.12.2018;FEY;;LION;49;14500;7200;192;6;43;45;8400;3000;3626;3626;1;13011;23.14;24.94;27,5;BCS1388054;2;9
009808;21.02.2021;19:27:00;Stop          ;03.12.2018;FEY;;LION;49;14500;7200;224;6;96;100;8400;;4158;4160;1;13011;27.34;28.04;31,1;BCS1388054;2;9
009808;04.04.2021;11:50:28;Normalcharge  ;03.12.2018;FEY;;LION;49;14500;7200;224;6;95;99;8400;;4130;4131;1;13014;25.04;26.54;27,9;BCS1388054;3;3
009808;04.04.2021;11:51:43;Stop           ;03.12.2018;FEY;;LION;49;14500;7200;224;6;95;99;8400;;4130;4131;1;12799;25.04;27.14;28,6;BCS1388054;3;3
009808;22.08.2021;11:07:56;Normalcharge  ;03.12.2018;FEY;;LION;49;14500;7200;192;6;85;88;8400;3000;3981;3983;1;12986;22.34;29.64;32,0;BCS1388054;2;13
009808;22.08.2021;11:08:29;Stop          ;03.12.2018;FEY;;LION;49;14500;7200;128;6;85;88;8400;3000;4045;4013;1;12575;22.44;30.94;32,4;BCS1388054;2;13
009808;14.10.2021;12:39:58;Normalcharge  ;03.12.2018;FEY;;LION;49;14500;7200;192;7;59;60;8400;3000;3749;3751;1;13000;24.64;27.24;27,9;BCS1388054;2;10
009808;14.10.2021;12:41:25;Stop          ;03.12.2018;FEY;;LION;49;14500;7200;128;7;59;61;8400;3000;3842;3797;1;12565;24.74;30.64;28,2;BCS1388054;2;10
009808;01.11.2021;09:52:15;Normalcharge  ;03.12.2018;FEY;;LION;49;14500;7200;192;7;58;60;8400;3000;3743;3745;1;13001;25.74;27.04;26,3;BCS1388054;2;10
009808;01.11.2021;09:53:18;Stop          ;03.12.2018;FEY;;LION;49;14500;7200;128;7;59;60;8400;3000;3831;3788;1;12508;25.74;29.54;26,8;BCS1388054;2;10
009808;01.11.2021;10:02:05;Normalcharge  ;03.12.2018;FEY;;LION;49;14500;7200;192;7;59;60;8400;3000;3746;3748;1;12994;25.84;28.44;29,5;BCS1388054;2;10
009808;01.11.2021;10:03:24;Stop          ;03.12.2018;FEY;;LION;49;14500;7200;128;7;59;60;8400;3000;3839;3794;1;12493;25.94;31.24;29,3;BCS1388054;2;10
009808;07.02.2022;08:51:04;Normalcharge  ;03.12.2018;FEY;;LION;49;14500;7200;192;7;57;58;8400;3000;3716;3717;1;13009;22.24;22.64;25,1;BCS1388054;3;2
009808;07.02.2022;14:32:56;Stop           ;03.12.2018;FEY;;LION;49;14500;7200;224;7;99;100;8400;;4154;4157;1;13006;25.74;26.84;30,8;BCS1388054;3;2
009808;14.03.2022;12:14:26;Normalcharge  ;03.12.2018;FEY;;LION;49;14500;7200;224;7;97;99;8400;;4131;4133;1;13019;23.94;24.64;27,5;BCS1388054;5;8
009808;14.03.2022;12:18:30;Stop          ;03.12.2018;FEY;;LION;49;14500;7200;224;7;97;99;8400;;4130;4132;1;13016;23.94;25.84;29,5;BCS1388054;5;8
009808;29.03.2022;08:20:53;Normalcharge  ;03.12.2018;FEY;;LION;49;14500;7200;192;7;84;87;8400;3000;4008;4010;1;13000;24.74;25.54;25,7;BCS1388054;5;7
009808;29.03.2022;08:21:28;Stop          ;03.12.2018;FEY;;LION;49;14500;7200;128;7;84;87;8400;3000;4025;4021;1;12830;24.74;26.94;25,8;BCS1388054;5;7
009808;29.03.2022;08:22:15;Normalcharge  ;03.12.2018;FEY;;LION;49;14500;7200;128;7;84;87;8400;3000;4008;4013;1;12998;24.74;26.54;26,3;BCS1388054;5;7
009808;29.03.2022;08:22:21;Stop          ;03.12.2018;FEY;;LION;49;14500;7200;128;7;84;87;8400;3000;4008;4013;1;12988;24.74;26.54;26,3;BCS1388054;5;7
009808;17.05.2022;08:54:06;Normalcharge  ;03.12.2018;FEY;;LION;49;14500;7200;192;7;84;87;8400;3000;3992;3995;1;12998;28.04;31.34;30,8;BCS1388054;1;15
009808;17.05.2022;11:50:11;Stop          ;03.12.2018;FEY;;LION;49;14500;7200;224;7;97;100;8400;;4154;4157;1;12995;30.84;33.74;34,5;BCS1388054;1;15