File: reader/Batterieverzeichnis_new/009851.txt
Serialnumber ; Date ; Time ; Action ; Date of Manufacture ; Manufacturer ; Battery Name ; Device-Chemistry ; Specification-Info ; Design-Capacity [mAh] ; Design-Voltage [mV] ; Battery Status ; Cycle Count ; SOC [%] ; Relativ SOC[%] ; Desired Voltage [mV]; Desired Current [mA]; Cell Voltage 1 [mV] ; Cell Voltage 2 [mV] ; Max_Error [%] ; Busvoltage[mV] ; Battery Temperature [°C] ; Charger Temperature [°C] ; Batterysystem ; Case ; PLace
009851;30.11.2020;09:44:38;Stop          ;04.12.2018;FEY;;LION;49;14500;7200;16576;2;99;99;;;4156;4158;1;12983;27.94;29.44;31,4;BCS1388054;2;18
009851;07.02.2021;08:46:48;Normalcharge  ;04.12.2018;FEY;;LION;49;14500;7200;16576;2;97;97;;;4123;4125;1;12996;23.84;26.14;29,2;BCS1388054;2;4
009851;07.02.2021;11:52:12;Stop          ;04.12.2018;FEY;;LION;49;14500;7200;16576;2;97;97;;;4123;4125;1;12997;26.04;27.44;29,7;BCS1388054;2;4
009851;03.03.2021;08:17:17;Normalcharge  ;04.12.2018;FEY;;LION;49;14500;7200;16576;2;95;95;;;4102;4103;1;13010;23.34;24.34;23,5;BCS1388054;2;10
009851;04.03.2021;07:53:46;Stop          ;04.12.2018;FEY;;LION;49;14500;7200;16576;2;95;95;;;4101;4102;1;12999;26.64;28.44;31,6;BCS1388054;2;10
009851;04.04.2021;11:50:39;Normalcharge  ;04.12.2018;FEY;;LION;49;14500;7200;192;2;48;49;8400;3000;3651;3651;1;12991;25.14;27.14;28,1;BCS1388054;1;2
009851;04.04.2021;11:51:54;Stop          ;04.12.2018;FEY;;LION;49;14500;7200;128;2;48;49;8400;3000;3733;3689;1;12571;25.24;30.04;28,8;BCS1388054;1;2
009851;05.04.2021;09:38:17;Charge to 60% ;04.12.2018;FEY;;LION;49;14500;7200;192;2;48;49;8400;3000;3653;3653;1;13006;25.34;25.74;26,4;BCS1388054;5;12
009851;05.04.2021;10:34:50;Charge to 60% ;04.12.2018;FEY;;LION;49;14500;7200;192;2;59;60;8400;3000;3769;3770;1;12904;28.44;28.34;32,4;BCS1388054;5;12
009851;05.04.2021;13:16:09;Stop          ;04.12.2018;FEY;;LION;49;14500;7200;192;2;59;60;8400;3000;3761;3763;1;13003;27.74;28.54;32,2;BCS1388054;5;12
009851;22.08.2021;11:37:21;Normalcharge  ;04.12.2018;FEY;;LION;49;14500;7200;192;2;52;53;8400;3000;3674;3674;1;13006;21.74;28.74;31,9;BCS1388054;5;3
009851;22.08.2021;11:38:04;Stop          ;04.12.2018;FEY;;LION;49;14500;7200;128;2;52;53;8400;3000;3740;3704;1;12756;21.84;30.54;32,0;BCS1388054;5;3
009851;25.08.2021;08:15:02;Charge to 60% ;04.12.2018;FEY;;LION;49;14500;7200;192;2;52;53;8400;3000;3677;3677;1;12998;30.54;32.74;33,2;BCS1388054;5;3
009851;25.08.2021;13:03:31;Stop          ;04.12.2018;FEY;;LION;49;14500;7200;192;2;59;60;8400;3000;3750;3750;1;12995;33.14;35.24;36,6;BCS1388054;5;3
009851;28.12.2021;09:01:29;Normalcharge  ;04.12.2018;FEY;;LION;49;14500;7200;192;3;35;35;8400;3000;3572;3572;1;13014;23.94;24.74;25,4;BCS1388054;4;10
009851;28.12.2021;09:02:38;Stop          ;04.12.2018;FEY;;LION;49;14500;7200;128;3;35;35;8400;3000;3658;3612;1;12586;23.94;27.64;25,8;BCS1388054;4;10
009851;28.12.2021;12:53:01;Stop          ;04.12.2018;FEY;;LION;49;14500;7200;192;3;59;60;8400;3000;3742;3742;1;12990;25.24;26.44;27,8;BCS1388054;4;10
009851;07.02.2022;08:50:37;Normalcharge  ;04.12.2018;FEY;;LION;49;14500;7200;192;3;57;57;8400;3000;3722;3722;1;13025;22.34;21.04;25,0;BCS1388054;7;15
009851;07.02.2022;14:21:07;Stop          ;04.12.2018;FEY;;LION;49;14500;7200;224;3;100;100;8400;;4156;4159;1;13018;25.34;25.44;28,9;BCS1388054;7;15
009851;14.03.2022;12:14:21;Normalcharge  ;04.12.2018;FEY;;LION;49;14500;7200;224;3;99;99;8400;;4130;4132;1;13009;24.24;25.54;27,5;BCS1388054;6;3
009851;14.03.2022;12:18:18;Stop          ;04.12.2018;FEY;;LION;49;14500;7200;224;3;99;99;8400;;4130;4132;1;12835;24.34;27.34;29,3;BCS1388054;6;3