File: reader/Batterieverzeichnis_new/009811.txt
Serialnumber ; Date ; Time ; Action ; Date of Manufacture ; Manufacturer ; Battery Name ; Device-Chemistry ; Specification-Info ; Design-Capacity [mAh] ; Design-Voltage [mV] ; Battery Status ; Cycle Count ; SOC [%] ; Relativ SOC[%] ; Desired Voltage [mV]; Desired Current [mA]; Cell Voltage 1 [mV] ; Cell Voltage 2 [mV] ; Max_Error [%] ; Busvoltage[mV] ; Battery Temperature [°C] ; Charger Temperature [°C] ; Batterysystem ; Case ; PLace
009811;07.12.2020;04:14:36;Cycle         ;03.12.2018;FEY;;LION;49;14500;7200;192;2;97;98;8400;;4138;4138;1;12996;25.14;26.24;30,3;BCS1388054;6;5
009811;08.12.2020;16:20:13;Stop          ;03.12.2018;FEY;;LION;49;14500;7200;192;2;97;98;8400;;4135;4135;1;12996;27.14;27.64;31,9;BCS1388054;6;5
009811;07.02.2021;08:46:53;Normalcharge  ;03.12.2018;FEY;;LION;49;14500;7200;192;2;95;96;8400;;4115;4115;1;13012;22.94;26.04;29,2;BCS1388054;3;3
009811;07.02.2021;11:52:16;Stop           ;03.12.2018;FEY;;LION;49;14500;7200;192;2;95;96;8400;;4115;4115;1;13013;25.34;27.34;29,7;BCS1388054;3;3
009811;03.03.2021;08:17:35;Normalcharge  ;03.12.2018;FEY;;LION;49;14500;7200;192;3;73;74;8400;3000;3893;3893;1;13018;22.64;24.34;23,6;BCS1388054;5;15
009811;03.03.2021;11:26:36;Stop          ;03.12.2018;FEY;;LION;49;14500;7200;224;3;100;100;8400;;4158;4160;1;13011;28.34;30.94;31,5;BCS1388054;5;15
009811;06.04.2021;08:38:46;Normalcharge  ;03.12.2018;FEY;;LION;49;14500;7200;224;3;98;99;8400;;4133;4133;1;13006;20.04;25.74;28,1;BCS1388054;2;17
009811;06.04.2021;08:39:36;Stop          ;03.12.2018;FEY;;LION;49;14500;7200;224;3;98;99;8400;;4133;4134;1;13004;20.14;25.94;28,2;BCS1388054;2;17
009811;08.04.2021;07:57:57;Normalcharge  ;03.12.2018;FEY;;LION;49;14500;7200;224;3;98;99;8400;;4132;4133;1;13008;24.74;25.84;26,3;BCS1388054;2;17
009811;08.04.2021;07:59:45;Stop          ;03.12.2018;FEY;;LION;49;14500;7200;224;3;98;99;8400;;4132;4133;1;13003;24.74;26.64;26,8;BCS1388054;2;17
009811;08.04.2021;10:35:00;Normalcharge  ;03.12.2018;FEY;;LION;49;14500;7200;224;3;98;99;8400;;4132;4133;1;13006;25.14;26.24;28,1;BCS1388054;2;17
009811;08.04.2021;10:36:53;Stop          ;03.12.2018;FEY;;LION;49;14500;7200;224;3;98;99;8400;;4132;4133;1;13002;25.14;27.14;28,9;BCS1388054;2;17
009811;18.04.2021;08:33:36;Normalcharge  ;03.12.2018;FEY;;LION;49;14500;7200;224;3;98;99;8400;;4128;4129;1;13005;25.64;27.24;27,7;BCS1388054;2;17
009811;18.04.2021;08:33:44;Stop          ;03.12.2018;FEY;;LION;49;14500;7200;224;3;98;99;8400;;4128;4129;1;13004;25.64;27.24;27,8;BCS1388054;2;17
009811;04.08.2021;07:24:55;Normalcharge  ;03.12.2018;FEY;;LION;49;14500;7200;192;3;95;96;8400;;4095;4095;1;12998;29.94;31.54;31,5;BCS1388054;2;17
009811;04.08.2021;07:25:47;Stop          ;03.12.2018;FEY;;LION;49;14500;7200;192;3;95;96;8400;;4095;4095;1;12995;29.94;31.94;31,9;BCS1388054;2;17
009811;22.08.2021;11:08:05;Normalcharge  ;03.12.2018;FEY;;LION;49;14500;7200;192;3;70;72;8400;3000;3865;3866;1;12999;22.04;29.24;32,1;BCS1388054;4;17
009811;22.08.2021;11:08:38;Stop          ;03.12.2018;FEY;;LION;49;14500;7200;128;3;70;72;8400;3000;3927;3895;1;12649;22.14;30.44;32,5;BCS1388054;4;17
009811;12.10.2021;12:58:56;Normalcharge  ;03.12.2018;FEY;;LION;49;14500;7200;192;3;70;72;8400;3000;3855;3856;1;13013;22.94;27.84;28,5;BCS1388054;6;17
009811;12.10.2021;12:59:25;Stop          ;03.12.2018;FEY;;LION;49;14500;7200;192;3;70;72;8400;3000;3855;3856;1;12972;23.04;28.94;28,6;BCS1388054;6;17
009811;14.10.2021;12:40:12;Normalcharge  ;03.12.2018;FEY;;LION;49;14500;7200;192;3;70;72;8400;3000;3855;3856;1;13003;23.24;25.74;27,9;BCS1388054;5;6
009811;14.10.2021;12:41:49;Stop          ;03.12.2018;FEY;;LION;49;14500;7200;128;3;71;72;8400;3000;3951;3904;1;12639;23.44;28.14;28,5;BCS1388054;5;6
009811;07.02.2022;08:51:04;Normalcharge  ;03.12.2018;FEY;;LION;49;14500;7200;192;3;71;73;8400;3000;3829;3830;1;13009;21.74;22.54;25,1;BCS1388054;3;5
009811;07.02.2022;14:32:56;Stop           ;03.12.2018;FEY;;LION;49;14500;7200;224;3;98;100;8400;;4150;4151;1;13004;25.14;26.04;30,8;BCS1388054;3;5
009811;14.03.2022;12:14:16;Normalcharge  ;03.12.2018;FEY;;LION;49;14500;7200;224;3;96;99;8400;;4129;4129;1;13021;23.54;25.44;27,4;BCS1388054;7;10
009811;14.03.2022;12:18:09;Stop          ;03.12.2018;FEY;;LION;49;14500;7200;224;3;96;99;8400;;4129;4129;1;12807;23.54;26.34;29,3;BCS1388054;7;10