File: reader/Batterieverzeichnis_new/009826.txt
Serialnumber ; Date ; Time ; Action ; Date of Manufacture ; Manufacturer ; Battery Name ; Device-Chemistry ; Specification-Info ; Design-Capacity [mAh] ; Design-Voltage [mV] ; Battery Status ; Cycle Count ; SOC [%] ; Relativ SOC[%] ; Desired Voltage [mV]; Desired Current [mA]; Cell Voltage 1 [mV] ; Cell Voltage 2 [mV] ; Max_Error [%] ; Busvoltage[mV] ; Battery Temperature [°C] ; Charger Temperature [°C] ; Batterysystem ; Case ; PLace
009826;02.12.2020;11:43:08;Cycle         ;03.12.2018;FEY;;LION;49;14500;7200;192;4;81;82;8400;3000;3943;3942;1;12990;26.24;28.34;28,4;BCS1388054;1;2
009826;03.12.2020;15:31:47;Stop          ;03.12.2018;FEY;;LION;49;14500;7200;224;6;97;100;8400;;4154;4154;1;12991;26.84;28.74;28,8;BCS1388054;1;2
009826;03.12.2020;17:28:02;Normalcharge  ;03.12.2018;FEY;;LION;49;14500;7200;224;6;97;100;8400;;4153;4152;1;12990;26.84;28.74;28,9;BCS1388054;1;2
009826;03.03.2021;08:17:08;Normalcharge  ;03.12.2018;FEY;;LION;49;14500;7200;192;6;95;98;8400;;4112;4112;1;13011;23.24;23.74;23,5;BCS1388054;1;3
009826;04.03.2021;07:53:50;Stop          ;03.12.2018;FEY;;LION;49;14500;7200;192;6;95;98;8400;;4112;4111;1;13004;26.24;28.74;31,6;BCS1388054;1;3
009826;04.04.2021;11:50:02;Normalcharge  ;03.12.2018;FEY;;LION;49;14500;7200;192;6;94;96;8400;;4097;4096;1;12980;25.04;24.84;27,7;BCS1388054;6;16
009826;04.04.2021;11:51:24;Stop          ;03.12.2018;FEY;;LION;49;14500;7200;192;6;94;96;8400;;4097;4096;1;12644;25.04;25.34;28,5;BCS1388054;6;16
009826;22.08.2021;11:07:50;Normalcharge  ;03.12.2018;FEY;;LION;49;14500;7200;192;6;78;80;8400;3000;3920;3920;1;12999;22.64;30.94;32,0;BCS1388054;1;6
009826;22.08.2021;11:08:23;Stop          ;03.12.2018;FEY;;LION;49;14500;7200;128;6;78;80;8400;3000;3958;3939;1;12624;22.74;31.74;32,4;BCS1388054;1;6
009826;12.10.2021;12:40:28;Normalcharge  ;03.12.2018;FEY;;LION;49;14500;7200;192;6;64;66;8400;3000;3784;3783;1;13029;24.14;26.74;28,8;BCS1388054;7;16
009826;12.10.2021;12:40:39;Stop          ;03.12.2018;FEY;;LION;49;14500;7200;192;6;64;66;8400;3000;3783;3783;1;13021;24.14;27.04;28,9;BCS1388054;7;16
009826;12.10.2021;12:43:08;Normalcharge  ;03.12.2018;FEY;;LION;49;14500;7200;192;6;64;66;8400;3000;3783;3783;1;13024;24.34;26.84;29,2;BCS1388054;7;16
009826;12.10.2021;12:43:28;Stop          ;03.12.2018;FEY;;LION;49;14500;7200;192;6;64;66;8400;3000;3784;3783;1;13019;24.34;27.44;29,2;BCS1388054;7;16
009826;14.10.2021;12:40:18;Normalcharge  ;03.12.2018;FEY;;LION;49;14500;7200;192;6;64;66;8400;3000;3783;3783;1;12993;23.94;25.74;28,1;BCS1388054;6;7
009826;14.10.2021;12:41:58;Stop          ;03.12.2018;FEY;;LION;49;14500;7200;128;6;64;66;8400;3000;3877;3831;1;12634;24.04;29.54;28,5;BCS1388054;6;7
009826;07.02.2022;08:51:46;Normalcharge  ;03.12.2018;FEY;;LION;49;14500;7200;192;6;58;59;8400;3000;3735;3735;1;13006;22.74;23.94;25,6;BCS1388054;2;10
009826;07.02.2022;13:15:56;Stop          ;03.12.2018;FEY;;LION;49;14500;7200;224;6;98;100;8400;;4158;4157;1;13001;26.14;27.64;31,1;BCS1388054;2;10
009826;14.03.2022;12:14:44;Normalcharge  ;03.12.2018;FEY;;LION;49;14500;7200;224;6;96;99;8400;;4130;4129;1;13007;24.64;26.04;27,7;BCS1388054;1;6
009826;14.03.2022;12:15:19;Stop          ;03.12.2018;FEY;;LION;49;14500;7200;224;6;96;99;8400;;4130;4129;1;13006;24.64;26.14;27,9;BCS1388054;1;6
009826;14.03.2022;12:15:29;Normalcharge  ;03.12.2018;FEY;;LION;49;14500;7200;224;6;96;99;8400;;4130;4129;1;13006;24.64;26.24;28,1;BCS1388054;1;6
009826;14.03.2022;12:16:01;Stop          ;03.12.2018;FEY;;LION;49;14500;7200;224;6;96;99;8400;;4130;4129;1;13006;24.64;26.24;28,4;BCS1388054;1;6
009826;14.03.2022;12:17:43;Normalcharge  ;03.12.2018;FEY;;LION;49;14500;7200;224;6;96;99;8400;;4130;4129;1;13004;24.64;26.54;29,2;BCS1388054;1;6
009826;14.03.2022;12:18:20;Stop          ;03.12.2018;FEY;;LION;49;14500;7200;224;6;96;99;8400;;4130;4129;1;13004;24.64;26.54;29,3;BCS1388054;1;6
009826;14.03.2022;12:19:16;Normalcharge  ;03.12.2018;FEY;;LION;49;14500;7200;224;6;96;99;8400;;4130;4129;1;13005;24.64;26.54;29,5;BCS1388054;1;6
009826;14.03.2022;12:19:20;Stop          ;03.12.2018;FEY;;LION;49;14500;7200;224;6;96;99;8400;;4130;4129;1;13005;24.64;26.54;29,6;BCS1388054;1;6
009826;29.03.2022;08:20:58;Normalcharge  ;03.12.2018;FEY;;LION;49;14500;7200;192;6;83;86;8400;3000;3986;3985;1;13011;24.94;25.34;25,7;BCS1388054;4;12
009826;29.03.2022;08:21:36;Stop          ;03.12.2018;FEY;;LION;49;14500;7200;128;6;83;86;8400;3000;4037;4010;1;12691;24.94;26.34;26,0;BCS1388054;4;12
009826;29.03.2022;08:22:11;Normalcharge  ;03.12.2018;FEY;;LION;49;14500;7200;128;6;83;86;8400;3000;3987;3989;1;13009;25.04;25.74;26,3;BCS1388054;4;12
009826;29.03.2022;08:22:29;Stop          ;03.12.2018;FEY;;LION;49;14500;7200;128;6;83;86;8400;3000;4000;3994;1;12881;25.04;26.14;26,4;BCS1388054;4;12
009826;17.05.2022;08:54:06;Normalcharge  ;03.12.2018;FEY;;LION;49;14500;7200;192;6;83;85;8400;3000;3971;3970;1;12998;28.34;31.34;30,8;BCS1388054;1;3
009826;17.05.2022;11:50:11;Stop          ;03.12.2018;FEY;;LION;49;14500;7200;224;6;98;100;8400;;4155;4154;1;12996;30.84;33.14;34,5;BCS1388054;1;3