File: reader/Batterieverzeichnis_new/009820.txt
Serialnumber ; Date ; Time ; Action ; Date of Manufacture ; Manufacturer ; Battery Name ; Device-Chemistry ; Specification-Info ; Design-Capacity [mAh] ; Design-Voltage [mV] ; Battery Status ; Cycle Count ; SOC [%] ; Relativ SOC[%] ; Desired Voltage [mV]; Desired Current [mA]; Cell Voltage 1 [mV] ; Cell Voltage 2 [mV] ; Max_Error [%] ; Busvoltage[mV] ; Battery Temperature [°C] ; Charger Temperature [°C] ; Batterysystem ; Case ; PLace
009820;07.02.2021;08:46:54;Normalcharge  ;04.12.2018;FEY;;LION;49;14500;7200;192;6;93;95;8400;3000;4086;4087;1;13002;23.74;24.04;29,2;BCS1388054;3;11
009820;07.02.2021;11:52:16;Stop           ;04.12.2018;FEY;;LION;49;14500;7200;224;6;98;100;8400;;4149;4151;1;13001;26.04;25.34;29,7;BCS1388054;3;11
009820;03.03.2021;08:17:29;Normalcharge  ;04.12.2018;FEY;;LION;49;14500;7200;192;6;87;90;8400;3000;4033;4034;1;13000;23.34;23.44;23,5;BCS1388054;4;5
009820;03.03.2021;10:32:46;Stop          ;04.12.2018;FEY;;LION;49;14500;7200;224;6;98;100;8400;;4154;4155;1;12995;28.24;28.54;32,0;BCS1388054;4;5
009820;04.04.2021;11:50:10;Normalcharge  ;04.12.2018;FEY;;LION;49;14500;7200;192;7;52;54;8400;3000;3683;3683;1;13010;25.24;26.14;27,8;BCS1388054;5;4
009820;04.04.2021;11:51:30;Stop          ;04.12.2018;FEY;;LION;49;14500;7200;128;7;52;54;8400;3000;3772;3723;1;12683;25.24;29.24;28,5;BCS1388054;5;4
009820;05.04.2021;09:38:11;Charge to 60% ;04.12.2018;FEY;;LION;49;14500;7200;192;7;52;54;8400;3000;3686;3686;1;13008;25.24;25.54;26,3;BCS1388054;4;8
009820;05.04.2021;10:13:52;Stop          ;04.12.2018;FEY;;LION;49;14500;7200;192;7;58;60;8400;3000;3755;3754;1;13004;27.74;29.14;32,1;BCS1388054;4;8
009820;22.08.2021;11:37:21;Normalcharge  ;04.12.2018;FEY;;LION;49;14500;7200;192;7;54;56;8400;3000;3697;3697;1;13002;22.24;27.84;31,9;BCS1388054;5;1
009820;22.08.2021;11:38:04;Stop          ;04.12.2018;FEY;;LION;49;14500;7200;128;7;54;56;8400;3000;3761;3726;1;12763;22.44;29.64;32,0;BCS1388054;5;1
009820;25.08.2021;08:15:02;Charge to 60% ;04.12.2018;FEY;;LION;49;14500;7200;192;7;54;56;8400;3000;3699;3699;1;13001;30.54;31.74;33,2;BCS1388054;5;1
009820;25.08.2021;13:03:31;Stop          ;04.12.2018;FEY;;LION;49;14500;7200;192;7;58;60;8400;3000;3746;3745;1;12999;32.94;34.14;36,6;BCS1388054;5;1
009820;28.12.2021;09:01:29;Normalcharge  ;04.12.2018;FEY;;LION;49;14500;7200;192;7;35;36;8400;3000;3570;3570;1;13010;23.84;24.24;25,4;BCS1388054;4;12
009820;28.12.2021;09:02:38;Stop          ;04.12.2018;FEY;;LION;49;14500;7200;128;7;35;36;8400;3000;3660;3612;1;12579;23.94;25.94;25,8;BCS1388054;4;12
009820;28.12.2021;12:53:01;Stop          ;04.12.2018;FEY;;LION;49;14500;7200;192;7;58;60;8400;3000;3728;3728;1;12987;25.04;25.34;27,8;BCS1388054;4;12
009820;07.02.2022;08:50:37;Normalcharge  ;04.12.2018;FEY;;LION;49;14500;7200;192;7;55;57;8400;3000;3701;3700;1;13031;22.34;21.24;25,0;BCS1388054;7;6
009820;07.02.2022;14:21:07;Stop          ;04.12.2018;FEY;;LION;49;14500;7200;224;7;98;100;8400;;4155;4155;1;13024;25.14;24.74;28,9;BCS1388054;7;6
009820;14.03.2022;12:14:21;Normalcharge  ;04.12.2018;FEY;;LION;49;14500;7200;192;7;92;94;8400;3000;4085;4084;1;13007;24.04;24.64;27,5;BCS1388054;6;4
009820;14.03.2022;12:18:18;Stop          ;04.12.2018;FEY;;LION;49;14500;7200;128;7;93;95;8400;3000;4160;4132;1;12838;24.24;28.14;29,3;BCS1388054;6;4
009820;29.03.2022;08:20:53;Normalcharge  ;04.12.2018;FEY;;LION;49;14500;7200;192;8;81;83;8400;3000;3963;3963;1;13014;25.04;25.14;25,7;BCS1388054;5;16
009820;29.03.2022;08:21:28;Stop          ;04.12.2018;FEY;;LION;49;14500;7200;128;8;81;83;8400;3000;3984;3975;1;12859;25.04;26.24;25,8;BCS1388054;5;16
009820;29.03.2022;08:22:15;Normalcharge  ;04.12.2018;FEY;;LION;49;14500;7200;128;8;81;83;8400;3000;3964;3966;1;13012;25.04;26.04;26,3;BCS1388054;5;16
009820;29.03.2022;08:22:21;Stop          ;04.12.2018;FEY;;LION;49;14500;7200;128;8;81;83;8400;3000;3964;3966;1;13001;25.04;26.14;26,3;BCS1388054;5;16