File: reader/Batterieverzeichnis_new/009850.txt
Serialnumber ; Date ; Time ; Action ; Date of Manufacture ; Manufacturer ; Battery Name ; Device-Chemistry ; Specification-Info ; Design-Capacity [mAh] ; Design-Voltage [mV] ; Battery Status ; Cycle Count ; SOC [%] ; Relativ SOC[%] ; Desired Voltage [mV]; Desired Current [mA]; Cell Voltage 1 [mV] ; Cell Voltage 2 [mV] ; Max_Error [%] ; Busvoltage[mV] ; Battery Temperature [°C] ; Charger Temperature [°C] ; Batterysystem ; Case ; PLace
009850;12.01.2021;04:17:28;Ladung auf 90% ;04.12.2018;FEY;;LION;49;14500;7200;192;2;95;96;8400;;4108;4107;1;13004;22.94;23.04;23,6;BCS1388054;3;6
009850;12.01.2021;04:57:30;Stop           ;04.12.2018;FEY;;LION;49;14500;7200;192;2;90;90;8400;3000;4053;4051;1;12999;27.14;28.24;31,5;BCS1388054;3;6
009850;12.01.2021;05:21:45;Cycle          ;04.12.2018;FEY;;LION;49;14500;7200;192;2;90;90;8400;3000;4055;4054;1;13000;27.14;26.74;30,4;BCS1388054;3;6
009850;13.01.2021;08:23:25;Stop           ;04.12.2018;FEY;;LION;49;14500;7200;224;4;98;100;8400;;4155;4156;1;12999;26.64;27.04;31,4;BCS1388054;3;6
009850;21.02.2021;13:43:49;Normalcharge  ;04.12.2018;FEY;;LION;49;14500;7200;224;4;96;99;8400;;4129;4130;1;13011;22.74;23.14;27,7;BCS1388054;3;9
009850;21.02.2021;20:44:52;Stop           ;04.12.2018;FEY;;LION;49;14500;7200;224;4;97;99;8400;;4130;4130;1;13005;26.64;27.64;31,2;BCS1388054;3;9
009850;06.04.2021;08:39:10;Normalcharge  ;04.12.2018;FEY;;LION;49;14500;7200;192;4;95;98;8400;;4113;4114;1;13018;21.64;25.44;28,1;BCS1388054;5;18
009850;06.04.2021;08:39:59;Stop          ;04.12.2018;FEY;;LION;49;14500;7200;192;4;95;98;8400;;4113;4114;1;13016;21.84;25.54;28,4;BCS1388054;5;18
009850;08.04.2021;07:58:30;Normalcharge  ;04.12.2018;FEY;;LION;49;14500;7200;192;4;95;97;8400;;4113;4113;1;13019;25.04;25.54;26,4;BCS1388054;5;18
009850;08.04.2021;07:59:28;Stop          ;04.12.2018;FEY;;LION;49;14500;7200;192;4;95;97;8400;;4113;4113;1;13018;25.04;25.94;26,7;BCS1388054;5;18
009850;08.04.2021;10:36:12;Normalcharge  ;04.12.2018;FEY;;LION;49;14500;7200;192;4;95;97;8400;;4113;4113;1;13022;25.24;26.14;28,6;BCS1388054;5;18
009850;08.04.2021;10:37:06;Stop          ;04.12.2018;FEY;;LION;49;14500;7200;192;4;95;97;8400;;4113;4113;1;13020;25.24;26.34;29,0;BCS1388054;5;18
009850;18.04.2021;08:34:16;Normalcharge  ;04.12.2018;FEY;;LION;49;14500;7200;192;4;95;97;8400;;4110;4110;1;13016;25.94;26.94;28,1;BCS1388054;5;18
009850;18.04.2021;08:34:27;Stop          ;04.12.2018;FEY;;LION;49;14500;7200;192;4;95;97;8400;;4110;4110;1;13016;25.94;27.04;28,2;BCS1388054;5;18
009850;04.08.2021;07:24:41;Normalcharge  ;04.12.2018;FEY;;LION;49;14500;7200;192;4;95;97;8400;;4080;4081;1;13018;30.04;30.94;31,5;BCS1388054;5;18
009850;04.08.2021;07:25:23;Stop          ;04.12.2018;FEY;;LION;49;14500;7200;192;4;95;97;8400;;4080;4081;1;13017;30.04;31.04;31,6;BCS1388054;5;18
009850;22.08.2021;11:37:17;Normalcharge  ;04.12.2018;FEY;;LION;49;14500;7200;192;4;95;97;8400;;4076;4076;1;12999;22.74;28.54;31,9;BCS1388054;6;5
009850;22.08.2021;11:37:57;Stop          ;04.12.2018;FEY;;LION;49;14500;7200;192;4;95;97;8400;;4076;4076;1;12871;22.84;28.74;32,0;BCS1388054;6;5
009850;12.10.2021;12:15:20;Normalcharge  ;04.12.2018;FEY;;LION;49;14500;7200;192;4;91;93;8400;3000;4061;4061;1;12999;23.54;25.74;27,9;BCS1388054;1;10
009850;12.10.2021;12:15:34;Stop          ;04.12.2018;FEY;;LION;49;14500;7200;192;4;91;93;8400;3000;4061;4061;1;12983;23.64;26.24;27,9;BCS1388054;1;10