File: reader/Batterieverzeichnis_new/009823.txt
Serialnumber ; Date ; Time ; Action ; Date of Manufacture ; Manufacturer ; Battery Name ; Device-Chemistry ; Specification-Info ; Design-Capacity [mAh] ; Design-Voltage [mV] ; Battery Status ; Cycle Count ; SOC [%] ; Relativ SOC[%] ; Desired Voltage [mV]; Desired Current [mA]; Cell Voltage 1 [mV] ; Cell Voltage 2 [mV] ; Max_Error [%] ; Busvoltage[mV] ; Battery Temperature [°C] ; Charger Temperature [°C] ; Batterysystem ; Case ; PLace
009823;07.12.2020;04:14:32;Cycle         ;04.12.2018;FEY;;LION;49;14500;7200;16576;2;99;98;;;4144;4144;1;13003;25.94;27.04;30,3;BCS1388054;5;12
009823;08.12.2020;16:20:01;Stop          ;04.12.2018;FEY;;LION;49;14500;7200;16576;2;99;98;;;4142;4142;1;13000;27.84;28.34;31,7;BCS1388054;5;12
009823;07.02.2021;08:46:53;Normalcharge  ;04.12.2018;FEY;;LION;49;14500;7200;16576;2;97;96;;;4119;4119;1;13001;23.64;25.74;29,2;BCS1388054;3;2
009823;07.02.2021;11:52:16;Stop           ;04.12.2018;FEY;;LION;49;14500;7200;16576;2;97;96;;;4119;4119;1;13003;25.94;27.14;29,7;BCS1388054;3;2
009823;03.03.2021;08:17:21;Normalcharge  ;04.12.2018;FEY;;LION;49;14500;7200;16576;2;92;92;;;4073;4074;1;13014;23.24;23.04;23,5;BCS1388054;3;15
009823;04.03.2021;07:53:40;Stop           ;04.12.2018;FEY;;LION;49;14500;7200;16576;2;92;92;;;4073;4074;1;13009;26.64;28.04;31,5;BCS1388054;3;15
009823;04.04.2021;11:50:28;Normalcharge  ;04.12.2018;FEY;;LION;49;14500;7200;192;2;91;90;8400;3000;4052;4053;1;13005;25.04;25.74;27,9;BCS1388054;3;18
009823;04.04.2021;11:51:43;Stop           ;04.12.2018;FEY;;LION;49;14500;7200;128;2;91;91;8400;3000;4121;4090;1;12771;25.14;28.44;28,6;BCS1388054;3;18
009823;22.08.2021;11:37:25;Normalcharge  ;04.12.2018;FEY;;LION;49;14500;7200;192;3;30;31;8400;3000;3560;3561;1;12991;21.34;28.34;31,9;BCS1388054;4;11
009823;22.08.2021;11:38:13;Stop          ;04.12.2018;FEY;;LION;49;14500;7200;128;3;30;31;8400;3000;3631;3593;1;12601;21.54;30.14;32,1;BCS1388054;4;11
009823;25.08.2021;08:15:08;Charge to 60% ;04.12.2018;FEY;;LION;49;14500;7200;192;3;30;30;8400;3000;3562;3563;1;12990;30.54;31.34;33,4;BCS1388054;4;11
009823;25.08.2021;12:59:17;Stop          ;04.12.2018;FEY;;LION;49;14500;7200;192;3;58;60;8400;3000;3761;3766;1;12989;32.74;33.24;36,6;BCS1388054;4;11
009823;01.11.2021;09:52:21;Normalcharge  ;04.12.2018;FEY;;LION;49;14500;7200;192;3;54;55;8400;3000;3719;3720;1;13003;26.04;26.04;26,4;BCS1388054;1;7
009823;01.11.2021;09:53:14;Stop          ;04.12.2018;FEY;;LION;49;14500;7200;128;3;54;55;8400;3000;3804;3758;1;12481;26.04;28.34;26,8;BCS1388054;1;7
009823;01.11.2021;10:01:59;Normalcharge  ;04.12.2018;FEY;;LION;49;14500;7200;192;3;54;55;8400;3000;3721;3723;1;12998;26.14;27.84;29,5;BCS1388054;1;7
009823;01.11.2021;10:03:29;Stop          ;04.12.2018;FEY;;LION;49;14500;7200;128;3;54;55;8400;3000;3813;3767;1;12470;26.24;30.74;29,3;BCS1388054;1;7
009823;01.11.2021;10:27:58;Normalcharge  ;04.12.2018;FEY;;LION;49;14500;7200;192;3;54;55;8400;3000;3725;3727;1;13001;26.44;26.54;27,8;BCS1388054;1;7
009823;01.11.2021;10:28:31;Stop          ;04.12.2018;FEY;;LION;49;14500;7200;128;3;54;55;8400;3000;3757;3741;1;12675;26.44;27.74;28,1;BCS1388054;1;7
009823;01.11.2021;10:31:48;Charge to 60% ;04.12.2018;FEY;;LION;49;14500;7200;192;3;54;55;8400;3000;3726;3728;1;13000;26.44;25.94;29,9;BCS1388054;1;7
009823;01.11.2021;11:39:51;Stop          ;04.12.2018;FEY;;LION;49;14500;7200;192;3;58;60;8400;3000;3800;3801;1;12999;28.04;29.44;32,5;BCS1388054;1;7
009823;09.02.2022;08:16:46;Normalcharge  ;04.12.2018;FEY;;LION;49;14500;7200;192;3;56;57;8400;3000;3733;3735;1;13009;22.54;21.84;23,1;BCS1388054;3;4
009823;09.02.2022;12:49:54;Stop           ;04.12.2018;FEY;;LION;49;14500;7200;224;3;98;100;8400;;4158;4159;1;13005;26.14;25.94;29,9;BCS1388054;3;4