File: reader/Batterieverzeichnis_new/009831.txt
Serialnumber ; Date ; Time ; Action ; Date of Manufacture ; Manufacturer ; Battery Name ; Device-Chemistry ; Specification-Info ; Design-Capacity [mAh] ; Design-Voltage [mV] ; Battery Status ; Cycle Count ; SOC [%] ; Relativ SOC[%] ; Desired Voltage [mV]; Desired Current [mA]; Cell Voltage 1 [mV] ; Cell Voltage 2 [mV] ; Max_Error [%] ; Busvoltage[mV] ; Battery Temperature [°C] ; Charger Temperature [°C] ; Batterysystem ; Case ; PLace
009831;30.11.2020;09:42:55;Stop          ;03.12.2018;FEY;;LION;49;14500;7200;16576;3;98;98;;;4152;4152;1;13030;27.64;28.84;31,7;BCS1388054;7;5
009831;07.12.2020;04:14:28;Cycle         ;03.12.2018;FEY;;LION;49;14500;7200;16576;3;97;98;;;4147;4147;1;13007;25.84;27.44;30,3;BCS1388054;4;13
009831;08.12.2020;16:19:56;Stop          ;03.12.2018;FEY;;LION;49;14500;7200;16576;3;97;98;;;4144;4144;1;13006;27.84;29.04;31,9;BCS1388054;4;13
009831;12.01.2021;04:17:33;Charge to 90% ;03.12.2018;FEY;;LION;49;14500;7200;16576;3;96;97;;;4129;4129;1;12996;23.14;24.34;23,6;BCS1388054;4;2
009831;12.01.2021;04:57:16;Stop          ;03.12.2018;FEY;;LION;49;14500;7200;192;3;90;90;8400;3000;4061;4061;1;12992;26.94;30.74;31,6;BCS1388054;4;2
009831;12.01.2021;05:21:49;Cycle         ;03.12.2018;FEY;;LION;49;14500;7200;192;3;90;90;8400;3000;4065;4065;1;12992;27.14;29.34;30,4;BCS1388054;4;2
009831;13.01.2021;08:19:19;Stop          ;03.12.2018;FEY;;LION;49;14500;7200;224;4;98;100;8400;;4156;4157;1;12992;27.24;29.24;30,7;BCS1388054;4;2
009831;21.02.2021;13:43:32;Normalcharge  ;03.12.2018;FEY;;LION;49;14500;7200;192;5;73;75;8400;3000;3896;3896;1;13003;23.34;25.34;27,5;BCS1388054;2;8
009831;21.02.2021;19:27:00;Stop          ;03.12.2018;FEY;;LION;49;14500;7200;224;5;97;100;8400;;4153;4153;1;13003;27.34;28.54;31,1;BCS1388054;2;8
009831;04.04.2021;11:50:02;Normalcharge  ;03.12.2018;FEY;;LION;49;14500;7200;192;5;52;54;8400;3000;3681;3680;1;13000;25.04;26.14;27,7;BCS1388054;6;8
009831;04.04.2021;11:51:24;Stop          ;03.12.2018;FEY;;LION;49;14500;7200;128;5;52;54;8400;3000;3769;3721;1;12667;25.04;29.24;28,5;BCS1388054;6;8
009831;05.04.2021;09:38:11;Charge to 60% ;03.12.2018;FEY;;LION;49;14500;7200;192;5;52;54;8400;3000;3683;3683;1;13006;25.04;25.14;26,3;BCS1388054;4;9
009831;05.04.2021;10:13:52;Stop          ;03.12.2018;FEY;;LION;49;14500;7200;192;5;58;60;8400;3000;3755;3752;1;13004;27.54;28.64;32,1;BCS1388054;4;9
009831;22.08.2021;11:07:50;Normalcharge  ;03.12.2018;FEY;;LION;49;14500;7200;192;5;44;45;8400;3000;3617;3617;1;12996;22.54;31.44;32,0;BCS1388054;1;3
009831;22.08.2021;11:08:23;Stop          ;03.12.2018;FEY;;LION;49;14500;7200;128;5;44;45;8400;3000;3674;3642;1;12639;22.64;32.44;32,4;BCS1388054;1;3
009831;25.08.2021;08:14:57;Charge to 60% ;03.12.2018;FEY;;LION;49;14500;7200;192;5;44;45;8400;3000;3619;3619;1;13004;30.34;32.64;33,2;BCS1388054;6;15
009831;25.08.2021;09:50:39;Stop          ;03.12.2018;FEY;;LION;49;14500;7200;192;5;58;60;8400;3000;3735;3735;1;13004;34.44;36.44;36,4;BCS1388054;6;15
009831;01.11.2021;09:52:11;Normalcharge  ;03.12.2018;FEY;;LION;49;14500;7200;192;6;50;51;8400;3000;3663;3664;1;13003;24.24;25.54;26,4;BCS1388054;3;12
009831;01.11.2021;09:53:27;Stop           ;03.12.2018;FEY;;LION;49;14500;7200;128;6;50;51;8400;3000;3753;3704;1;12592;24.34;27.64;27,1;BCS1388054;3;12
009831;01.11.2021;10:02:09;Normalcharge  ;03.12.2018;FEY;;LION;49;14500;7200;192;6;50;51;8400;3000;3666;3666;1;12999;24.94;26.74;29,5;BCS1388054;3;12
009831;01.11.2021;10:03:20;Stop           ;03.12.2018;FEY;;LION;49;14500;7200;128;6;50;51;8400;3000;3754;3706;1;12585;25.04;28.44;29,5;BCS1388054;3;12
009831;01.11.2021;10:18:16;Normalcharge  ;03.12.2018;FEY;;LION;49;14500;7200;192;6;50;51;8400;3000;3667;3667;1;13001;25.44;26.74;28,2;BCS1388054;3;12
009831;01.11.2021;10:18:56;Stop           ;03.12.2018;FEY;;LION;49;14500;7200;128;6;50;51;8400;3000;3746;3701;1;12601;25.54;27.84;28,2;BCS1388054;3;12
009831;01.11.2021;10:27:50;Normalcharge  ;03.12.2018;FEY;;LION;49;14500;7200;192;6;50;51;8400;3000;3668;3668;1;13002;25.74;26.94;27,8;BCS1388054;3;12
009831;01.11.2021;10:29:05;Stop           ;03.12.2018;FEY;;LION;49;14500;7200;128;6;50;52;8400;3000;3755;3708;1;12555;25.74;28.64;28,5;BCS1388054;3;12
009831;01.11.2021;10:32:24;Ladung auf 60% ;03.12.2018;FEY;;LION;49;14500;7200;192;6;50;52;8400;3000;3671;3671;1;12999;25.94;27.34;29,7;BCS1388054;3;12
009831;01.11.2021;15:19:46;Stop           ;03.12.2018;FEY;;LION;49;14500;7200;192;6;58;60;8400;3000;3748;3747;1;12999;28.64;29.24;32,7;BCS1388054;3;12
009831;09.02.2022;08:16:56;Normalcharge  ;03.12.2018;FEY;;LION;49;14500;7200;192;6;55;56;8400;3000;3708;3709;1;13009;22.44;23.64;23,1;BCS1388054;2;10
009831;09.02.2022;12:43:52;Stop          ;03.12.2018;FEY;;LION;49;14500;7200;224;6;98;100;8400;;4162;4163;1;13002;26.34;27.54;29,9;BCS1388054;2;10