File: reader/backup_20210330/Batterieverzeichnis/009564.txt
Serialnumber ; Date ; Time ; Action ; Date of Manufacture ; Manufacturer ; Battery Name ; Device-Chemistry ; Specification-Info ; Design-Capacity [mAh] ; Design-Voltage [mV] ; Battery Status ; Cycle Count ; SOC [%] ; Relativ SOC[%] ; Desired Voltage [mV]; Desired Current [mA]; Cell Voltage 1 [mV] ; Cell Voltage 2 [mV] ; Max_Error [%] ; Busvoltage[mV] ; Battery Temperature [°C] ; Charger Temperature [°C] ; Batterysystem ; Case ; PLace
009564;07.12.2020;04:14:36;Cycle         ;03.12.2018;FEY;;LION;49;14500;7200;192;1;98;97;8400;;4137;4136;1;13010;24.44;28.24;30,3;BCS1388054;6;17
009564;08.12.2020;16:20:13;Stop          ;03.12.2018;FEY;;LION;49;14500;7200;192;1;98;97;8400;;4135;4134;1;13009;26.44;29.94;31,9;BCS1388054;6;17
009564;12.01.2021;04:17:40;Charge to 90% ;03.12.2018;FEY;;LION;49;14500;7200;192;2;92;91;8400;3000;4066;4065;1;13001;21.84;23.34;23,6;BCS1388054;6;7
009564;12.01.2021;05:00:55;Stop          ;03.12.2018;FEY;;LION;49;14500;7200;192;2;91;90;8400;3000;4058;4058;1;12994;25.24;29.54;31,2;BCS1388054;6;7
009564;12.01.2021;05:21:57;Cycle         ;03.12.2018;FEY;;LION;49;14500;7200;192;2;91;90;8400;3000;4058;4058;1;12996;25.64;28.24;30,4;BCS1388054;6;7
009564;13.01.2021;08:31:18;Stop          ;03.12.2018;FEY;;LION;49;14500;7200;224;3;97;100;8400;;4156;4157;1;12997;25.84;28.24;31,1;BCS1388054;6;7
009564;21.02.2021;13:43:49;Normalcharge  ;03.12.2018;FEY;;LION;49;14500;7200;224;3;96;99;8400;;4131;4132;1;13014;21.64;23.04;27,7;BCS1388054;3;15
009564;21.02.2021;20:44:52;Stop           ;03.12.2018;FEY;;LION;49;14500;7200;224;3;96;99;8400;;4131;4132;1;13010;25.44;28.04;31,2;BCS1388054;3;15