File: reader/backup_20210330/Batterieverzeichnis/009554.txt
Serialnumber ; Date ; Time ; Action ; Date of Manufacture ; Manufacturer ; Battery Name ; Device-Chemistry ; Specification-Info ; Design-Capacity [mAh] ; Design-Voltage [mV] ; Battery Status ; Cycle Count ; SOC [%] ; Relativ SOC[%] ; Desired Voltage [mV]; Desired Current [mA]; Cell Voltage 1 [mV] ; Cell Voltage 2 [mV] ; Max_Error [%] ; Busvoltage[mV] ; Battery Temperature [°C] ; Charger Temperature [°C] ; Batterysystem ; Case ; PLace
009554;10.12.2019;15:29:01;Charge to 30% ;04.12.2018;FEY;;LION;49;14500;7200;224;50;93;100;8400;;4129;4129;1;13015;22.64;25.34;27,1;BCS1388054;5;5
009554;10.12.2019;20:48:54;Stop          ;04.12.2018;FEY;;LION;49;14500;7200;192;50;29;30;8400;3000;3558;3558;1;13014;32.94;32.84;33,1;BCS1388054;5;5
009554;11.12.2019;08:48:53;Fastcharge    ;04.12.2018;FEY;;LION;49;14500;7200;192;50;29;30;8400;3000;3567;3567;1;13013;26.44;28.74;31,9;BCS1388054;5;5
009554;11.12.2019;13:40:11;Stop          ;04.12.2018;FEY;;LION;49;14500;7200;224;50;95;100;8400;;4162;4162;1;13014;29.44;30.34;32,4;BCS1388054;5;5
009554;11.12.2019;15:46:40;Charge to 10% ;04.12.2018;FEY;;LION;49;14500;7200;224;50;96;100;8400;;4152;4152;1;13014;27.14;28.74;31,4;BCS1388054;5;5
009554;11.12.2019;22:49:07;Stop          ;04.12.2018;FEY;;LION;49;14500;7200;192;52;10;10;8400;3000;3350;3350;1;13013;33.64;33.44;33,5;BCS1388054;5;5
009554;12.12.2019;08:45:10;Normalcharge  ;04.12.2018;FEY;;LION;49;14500;7200;192;52;9;10;8400;3000;3362;3362;1;13014;26.64;28.64;31,7;BCS1388054;5;5
009554;12.12.2019;16:41:20;Stop          ;04.12.2018;FEY;;LION;49;14500;7200;224;52;96;100;8400;;4161;4161;1;13013;28.84;29.74;31,6;BCS1388054;5;5
009554;13.12.2019;10:48:05;Charge to 10% ;04.12.2018;FEY;;LION;49;14500;7200;224;52;96;100;8400;;4148;4148;1;13014;26.64;28.94;32,0;BCS1388054;5;5
009554;13.12.2019;15:40:55;Stop          ;04.12.2018;FEY;;LION;49;14500;7200;192;52;35;37;8400;3000;3501;3553;1;13522;32.34;36.24;34,6;BCS1388054;5;5
009554;13.12.2019;15:41:42;Cycle         ;04.12.2018;FEY;;LION;49;14500;7200;192;52;35;37;8400;3000;3583;3583;1;13013;32.34;34.04;34,5;BCS1388054;5;5
009554;14.12.2019;22:39:35;Stop          ;04.12.2018;FEY;;LION;49;14500;7200;224;54;93;99;8400;;4150;4151;1;13014;26.64;28.64;31,7;BCS1388054;5;5
009554;16.12.2019;07:43:20;Charge to 10% ;04.12.2018;FEY;;LION;49;14500;7200;224;54;93;100;8400;;4144;4145;1;13015;26.44;27.74;31,9;BCS1388054;5;5
009554;16.12.2019;14:34:29;Stop          ;04.12.2018;FEY;;LION;49;14500;7200;192;55;10;10;8400;3000;3362;3363;1;13014;32.14;31.94;32,5;BCS1388054;5;5
009554;16.12.2019;14:44:17;Charge to 90% ;04.12.2018;FEY;;LION;49;14500;7200;192;55;10;10;8400;3000;3366;3367;1;13014;31.34;30.64;31,9;BCS1388054;5;5
009554;16.12.2019;20:48:55;Stop          ;04.12.2018;FEY;;LION;49;14500;7200;192;55;84;90;8400;3000;4057;4057;1;13014;31.14;31.24;31,9;BCS1388054;5;5
009554;17.12.2019;08:37:53;Fastcharge    ;04.12.2018;FEY;;LION;49;14500;7200;192;55;84;90;8400;3000;4045;4045;1;13014;26.44;28.64;31,6;BCS1388054;5;5
009554;17.12.2019;10:33:46;Stop          ;04.12.2018;FEY;;LION;49;14500;7200;224;55;95;100;8400;;4159;4158;1;13016;27.94;29.24;31,1;BCS1388054;5;5
009554;17.12.2019;10:33:46;Stop          ;04.12.2018;FEY;;LION;49;14500;7200;224;55;95;100;8400;;4159;4158;1;13016;27.94;29.24;31,1;BCS1388054;5;5
009554;17.12.2019;13:38:36;Charge to 10% ;04.12.2018;FEY;;LION;49;14500;7200;224;55;95;100;8400;;4148;4148;1;13014;26.74;28.54;30,8;BCS1388054;5;5
009554;17.12.2019;20:33:18;Stop          ;04.12.2018;FEY;;LION;49;14500;7200;192;56;10;10;8400;3000;3360;3360;1;13014;33.54;33.54;34,5;BCS1388054;5;5
009554;18.12.2019;08:31:30;Fastcharge    ;04.12.2018;FEY;;LION;49;14500;7200;192;56;9;10;8400;3000;3371;3371;1;13014;26.64;28.54;31,6;BCS1388054;5;5
009554;18.12.2019;14:29:27;Stop          ;04.12.2018;FEY;;LION;49;14500;7200;224;56;94;100;8400;;4161;4159;1;13015;29.44;30.14;31,7;BCS1388054;5;5
009554;19.12.2019;08:24:02;Charge to 60% ;04.12.2018;FEY;;LION;49;14500;7200;224;56;95;100;8400;;4148;4146;1;13015;26.54;28.64;31,5;BCS1388054;5;5
009554;19.12.2019;11:31:09;Stop          ;04.12.2018;FEY;;LION;49;14500;7200;192;56;57;60;8400;3000;3765;3766;1;13013;33.54;33.54;34,4;BCS1388054;5;5
009554;19.12.2019;12:16:49;Cycle         ;04.12.2018;FEY;;LION;49;14500;7200;192;56;57;60;8400;3000;3775;3776;1;13014;29.94;30.54;32,7;BCS1388054;5;5
009554;20.12.2019;17:27:50;Stop          ;04.12.2018;FEY;;LION;49;14500;7200;224;58;93;100;8400;;4151;4150;1;13016;26.84;28.24;31,0;BCS1388054;5;5
009554;06.01.2020;06:34:55;Charge to 60% ;04.12.2018;FEY;;LION;49;14500;7200;192;58;92;98;8400;;4121;4120;1;13016;26.74;28.74;31,9;BCS1388054;5;5
009554;06.01.2020;09:30:26;Stop          ;04.12.2018;FEY;;LION;49;14500;7200;192;58;57;60;8400;3000;3769;3771;1;13015;32.74;32.94;33,9;BCS1388054;5;5
009554;06.01.2020;09:50:42;Fastcharge    ;04.12.2018;FEY;;LION;49;14500;7200;192;58;57;60;8400;3000;3778;3779;1;13015;31.14;31.24;32,7;BCS1388054;5;5
009554;06.01.2020;13:09:56;Stop          ;04.12.2018;FEY;;LION;49;14500;7200;224;58;94;100;8400;;4159;4158;1;13015;28.94;29.44;31,4;BCS1388054;5;5