File: reader/backup_20210330/Batterieverzeichnis/009526.txt
Serialnumber ; Date ; Time ; Action ; Date of Manufacture ; Manufacturer ; Battery Name ; Device-Chemistry ; Specification-Info ; Design-Capacity [mAh] ; Design-Voltage [mV] ; Battery Status ; Cycle Count ; SOC [%] ; Relativ SOC[%] ; Desired Voltage [mV]; Desired Current [mA]; Cell Voltage 1 [mV] ; Cell Voltage 2 [mV] ; Max_Error [%] ; Busvoltage[mV] ; Battery Temperature [°C] ; Charger Temperature [°C] ; Batterysystem ; Case ; PLace
009526;10.12.2019;15:28:40;Charge to 30% ;04.12.2018;FEY;;LION;49;14500;7200;224;52;93;99;8400;;4132;4132;1;13012;23.04;24.54;27,1;BCS1388054;2;1
009526;10.12.2019;20:48:37;Stop          ;04.12.2018;FEY;;LION;49;14500;7200;192;53;29;30;8400;3000;3560;3561;1;13010;33.34;33.84;33,2;BCS1388054;2;1
009526;11.12.2019;08:48:24;Fastcharge    ;04.12.2018;FEY;;LION;49;14500;7200;192;53;29;30;8400;3000;3568;3569;1;13010;26.44;28.24;31,9;BCS1388054;2;1
009526;11.12.2019;13:39:47;Stop          ;04.12.2018;FEY;;LION;49;14500;7200;224;53;94;100;8400;;4160;4160;1;13010;30.14;30.74;32,5;BCS1388054;2;1
009526;11.12.2019;15:46:18;Charge to 10% ;04.12.2018;FEY;;LION;49;14500;7200;224;53;95;99;8400;;4152;4153;1;13011;27.24;28.74;31,4;BCS1388054;2;1
009526;11.12.2019;22:49:04;Stop          ;04.12.2018;FEY;;LION;49;14500;7200;192;54;10;10;8400;3000;3352;3354;1;13009;34.24;34.34;33,6;BCS1388054;2;1
009526;12.12.2019;08:44:52;Normalcharge  ;04.12.2018;FEY;;LION;49;14500;7200;192;54;9;10;8400;3000;3363;3364;1;13011;26.54;28.44;31,9;BCS1388054;2;1
009526;12.12.2019;16:40:06;Stop          ;04.12.2018;FEY;;LION;49;14500;7200;224;54;95;100;8400;;4159;4159;1;13011;29.24;30.24;31,7;BCS1388054;2;1
009526;13.12.2019;10:47:50;Charge to 10% ;04.12.2018;FEY;;LION;49;14500;7200;224;54;95;100;8400;;4147;4147;1;13011;26.64;28.54;32,0;BCS1388054;2;1
009526;13.12.2019;15:42:08;Cycle         ;04.12.2018;FEY;;LION;49;14500;7200;192;55;34;36;8400;3000;3499;3550;1;13559;33.14;38.44;34,6;BCS1388054;2;1
009526;13.12.2019;15:42:08;Stop          ;04.12.2018;FEY;;LION;49;14500;7200;192;55;34;36;8400;3000;3499;3550;1;13559;33.14;38.44;34,6;BCS1388054;2;1
009526;14.12.2019;22:48:51;Stop          ;04.12.2018;FEY;;LION;49;14500;7200;224;56;93;100;8400;;4151;4153;1;13012;26.74;28.44;32,0;BCS1388054;2;1
009526;16.12.2019;07:43:06;Charge to 10% ;04.12.2018;FEY;;LION;49;14500;7200;224;56;93;100;8400;;4145;4147;1;13011;26.34;28.04;31,9;BCS1388054;2;1
009526;16.12.2019;14:37:54;Stop          ;04.12.2018;FEY;;LION;49;14500;7200;192;57;10;10;8400;3000;3364;3366;1;13010;32.84;32.54;32,4;BCS1388054;2;1
009526;16.12.2019;14:44:03;Charge to 90% ;04.12.2018;FEY;;LION;49;14500;7200;192;57;10;10;8400;3000;3365;3368;1;13011;32.34;31.74;31,9;BCS1388054;2;1
009526;16.12.2019;20:51:09;Stop          ;04.12.2018;FEY;;LION;49;14500;7200;192;57;84;90;8400;3000;4056;4057;1;13013;31.64;31.54;31,6;BCS1388054;2;1
009526;17.12.2019;08:37:40;Fastcharge    ;04.12.2018;FEY;;LION;49;14500;7200;192;57;84;90;8400;3000;4047;4048;1;13011;26.44;28.14;31,6;BCS1388054;2;1
009526;17.12.2019;10:30:36;Stop          ;04.12.2018;FEY;;LION;49;14500;7200;224;57;94;100;8400;;4161;4161;1;13011;27.94;29.64;31,5;BCS1388054;2;1
009526;17.12.2019;13:38:22;Charge to 10% ;04.12.2018;FEY;;LION;49;14500;7200;224;57;94;100;8400;;4149;4149;1;13012;26.74;28.34;30,8;BCS1388054;2;1
009526;17.12.2019;20:36:00;Stop          ;04.12.2018;FEY;;LION;49;14500;7200;192;59;10;10;8400;3000;3364;3365;1;13011;33.94;33.84;33,6;BCS1388054;2;1
009526;18.12.2019;08:31:17;Fastcharge    ;04.12.2018;FEY;;LION;49;14500;7200;192;59;10;10;8400;3000;3373;3374;1;13011;26.54;28.34;31,6;BCS1388054;2;1
009526;18.12.2019;14:28:27;Stop          ;04.12.2018;FEY;;LION;49;14500;7200;224;59;94;100;8400;;4159;4158;1;13011;30.14;30.64;32,0;BCS1388054;2;1
009526;19.12.2019;08:23:50;Charge to 60% ;04.12.2018;FEY;;LION;49;14500;7200;224;59;95;100;8400;;4148;4146;1;13010;26.44;28.24;31,5;BCS1388054;2;1
009526;19.12.2019;11:32:11;Stop          ;04.12.2018;FEY;;LION;49;14500;7200;192;59;57;60;8400;3000;3771;3771;1;13011;33.84;34.44;34,0;BCS1388054;2;1
009526;19.12.2019;12:16:37;Cycle         ;04.12.2018;FEY;;LION;49;14500;7200;192;59;57;60;8400;3000;3779;3780;1;13012;30.74;30.64;32,7;BCS1388054;2;1
009526;20.12.2019;17:35:47;Stop          ;04.12.2018;FEY;;LION;49;14500;7200;224;60;93;100;8400;;4151;4151;1;13012;26.74;28.24;31,1;BCS1388054;2;1
009526;06.01.2020;06:34:42;Charge to 60% ;04.12.2018;FEY;;LION;49;14500;7200;224;60;92;99;8400;;4122;4122;1;13012;26.44;28.24;31,9;BCS1388054;2;1
009526;06.01.2020;09:32:11;Stop          ;04.12.2018;FEY;;LION;49;14500;7200;192;61;57;60;8400;3000;3768;3770;1;13011;33.04;33.74;33,2;BCS1388054;2;1
009526;06.01.2020;09:50:30;Fastcharge    ;04.12.2018;FEY;;LION;49;14500;7200;192;61;57;60;8400;3000;3775;3777;1;13013;31.84;31.34;32,7;BCS1388054;2;1
009526;06.01.2020;13:08:34;Stop          ;04.12.2018;FEY;;LION;49;14500;7200;224;61;94;100;8400;;4159;4159;1;13013;29.54;30.14;31,6;BCS1388054;2;1