File: reader/backup_20210330/Batterieverzeichnis/009668.txt
Serialnumber ; Date ; Time ; Action ; Date of Manufacture ; Manufacturer ; Battery Name ; Device-Chemistry ; Specification-Info ; Design-Capacity [mAh] ; Design-Voltage [mV] ; Battery Status ; Cycle Count ; SOC [%] ; Relativ SOC[%] ; Desired Voltage [mV]; Desired Current [mA]; Cell Voltage 1 [mV] ; Cell Voltage 2 [mV] ; Max_Error [%] ; Busvoltage[mV] ; Battery Temperature [°C] ; Charger Temperature [°C] ; Batterysystem ; Case ; PLace
009668;10.12.2019;15:28:40;Charge to 30% ;03.12.2018;FEY;;LION;49;14500;7200;224;52;92;99;8400;;4131;4130;1;13010;23.34;25.04;27,1;BCS1388054;2;12
009668;10.12.2019;20:48:37;Stop          ;03.12.2018;FEY;;LION;49;14500;7200;192;53;29;30;8400;3000;3563;3563;1;13008;32.64;32.34;33,2;BCS1388054;2;12
009668;11.12.2019;08:48:24;Fastcharge    ;03.12.2018;FEY;;LION;49;14500;7200;192;53;29;30;8400;3000;3570;3570;1;13007;26.44;27.74;31,9;BCS1388054;2;12
009668;11.12.2019;13:39:47;Stop          ;03.12.2018;FEY;;LION;49;14500;7200;224;53;95;100;8400;;4160;4161;1;13007;29.14;29.64;32,5;BCS1388054;2;12
009668;11.12.2019;15:46:18;Charge to 10% ;03.12.2018;FEY;;LION;49;14500;7200;224;53;96;99;8400;;4152;4152;1;13008;27.04;28.14;31,4;BCS1388054;2;12
009668;11.12.2019;22:49:04;Stop          ;03.12.2018;FEY;;LION;49;14500;7200;192;54;10;10;8400;3000;3352;3352;1;13008;33.24;32.74;33,6;BCS1388054;2;12
009668;12.12.2019;08:44:52;Normalcharge  ;03.12.2018;FEY;;LION;49;14500;7200;192;54;9;10;8400;3000;3363;3363;1;13008;26.64;27.84;31,9;BCS1388054;2;12
009668;12.12.2019;16:40:06;Stop          ;03.12.2018;FEY;;LION;49;14500;7200;224;54;96;100;8400;;4161;4161;1;13008;28.64;29.24;31,7;BCS1388054;2;12
009668;13.12.2019;10:47:50;Charge to 10% ;03.12.2018;FEY;;LION;49;14500;7200;224;54;96;100;8400;;4147;4147;1;13008;26.64;27.94;32,0;BCS1388054;2;12
009668;13.12.2019;15:42:08;Cycle         ;03.12.2018;FEY;;LION;49;14500;7200;192;55;34;36;8400;3000;3502;3552;1;13580;32.34;34.74;34,6;BCS1388054;2;12
009668;13.12.2019;15:42:08;Stop          ;03.12.2018;FEY;;LION;49;14500;7200;192;55;34;36;8400;3000;3502;3552;1;13580;32.34;34.74;34,6;BCS1388054;2;12
009668;14.12.2019;22:48:51;Stop          ;03.12.2018;FEY;;LION;49;14500;7200;224;56;93;100;8400;;4151;4150;1;13008;26.64;27.94;32,0;BCS1388054;2;12
009668;16.12.2019;07:43:06;Charge to 10% ;03.12.2018;FEY;;LION;49;14500;7200;224;56;94;100;8400;;4145;4144;1;13009;26.44;27.34;31,9;BCS1388054;2;12
009668;16.12.2019;14:37:54;Stop          ;03.12.2018;FEY;;LION;49;14500;7200;192;57;10;10;8400;3000;3366;3366;1;13008;31.74;31.34;32,4;BCS1388054;2;12
009668;16.12.2019;14:44:03;Charge to 90% ;03.12.2018;FEY;;LION;49;14500;7200;192;57;10;10;8400;3000;3368;3368;1;13009;31.14;30.64;31,9;BCS1388054;2;12
009668;16.12.2019;20:51:09;Stop          ;03.12.2018;FEY;;LION;49;14500;7200;192;57;84;90;8400;3000;4059;4060;1;13010;30.64;30.34;31,6;BCS1388054;2;12
009668;17.12.2019;08:37:41;Fastcharge    ;03.12.2018;FEY;;LION;49;14500;7200;192;57;85;90;8400;3000;4049;4049;1;13008;26.44;27.64;31,6;BCS1388054;2;12
009668;17.12.2019;10:30:36;Stop          ;03.12.2018;FEY;;LION;49;14500;7200;224;57;95;100;8400;;4159;4158;1;13009;27.74;28.64;31,5;BCS1388054;2;12
009668;17.12.2019;13:38:22;Charge to 10% ;03.12.2018;FEY;;LION;49;14500;7200;224;57;95;100;8400;;4148;4148;1;13009;26.74;27.74;30,8;BCS1388054;2;12
009668;17.12.2019;20:36:00;Stop          ;03.12.2018;FEY;;LION;49;14500;7200;192;58;10;10;8400;3000;3366;3366;1;13009;32.94;32.54;33,6;BCS1388054;2;12
009668;18.12.2019;08:31:17;Fastcharge    ;03.12.2018;FEY;;LION;49;14500;7200;192;58;10;11;8400;3000;3375;3376;1;13009;26.64;27.74;31,6;BCS1388054;2;12
009668;18.12.2019;14:28:27;Stop          ;03.12.2018;FEY;;LION;49;14500;7200;224;58;95;100;8400;;4160;4159;1;13009;29.14;29.64;32,0;BCS1388054;2;12
009668;19.12.2019;08:23:50;Charge to 60% ;03.12.2018;FEY;;LION;49;14500;7200;224;58;96;100;8400;;4147;4146;1;13008;26.44;27.74;31,5;BCS1388054;2;12
009668;19.12.2019;11:32:11;Stop          ;03.12.2018;FEY;;LION;49;14500;7200;192;59;58;60;8400;3000;3773;3773;1;13010;33.34;32.84;34,0;BCS1388054;2;12
009668;19.12.2019;12:16:37;Cycle         ;03.12.2018;FEY;;LION;49;14500;7200;192;59;58;60;8400;3000;3781;3781;1;13009;29.64;29.84;32,7;BCS1388054;2;12
009668;20.12.2019;17:35:47;Stop          ;03.12.2018;FEY;;LION;49;14500;7200;224;60;94;100;8400;;4150;4151;1;13009;26.54;27.64;31,1;BCS1388054;2;12
009668;06.01.2020;06:34:42;Charge to 60% ;03.12.2018;FEY;;LION;49;14500;7200;224;60;93;99;8400;;4122;4122;1;13010;26.54;27.64;31,9;BCS1388054;2;12
009668;06.01.2020;09:32:11;Stop          ;03.12.2018;FEY;;LION;49;14500;7200;192;60;57;60;8400;3000;3770;3772;1;13009;32.64;32.14;33,2;BCS1388054;2;12
009668;06.01.2020;09:50:30;Fastcharge    ;03.12.2018;FEY;;LION;49;14500;7200;192;60;57;60;8400;3000;3779;3781;1;13010;30.74;30.54;32,7;BCS1388054;2;12
009668;06.01.2020;13:08:34;Stop          ;03.12.2018;FEY;;LION;49;14500;7200;224;60;95;100;8400;;4161;4161;1;13009;28.74;29.14;31,6;BCS1388054;2;12