File: reader/backup_20210330/Batterieverzeichnis/009645.txt
Serialnumber ; Date ; Time ; Action ; Date of Manufacture ; Manufacturer ; Battery Name ; Device-Chemistry ; Specification-Info ; Design-Capacity [mAh] ; Design-Voltage [mV] ; Battery Status ; Cycle Count ; SOC [%] ; Relativ SOC[%] ; Desired Voltage [mV]; Desired Current [mA]; Cell Voltage 1 [mV] ; Cell Voltage 2 [mV] ; Max_Error [%] ; Busvoltage[mV] ; Battery Temperature [°C] ; Charger Temperature [°C] ; Batterysystem ; Case ; PLace
009645;10.12.2019;15:28:41;Charge to 30% ;04.12.2018;FEY;;LION;49;14500;7200;224;49;93;100;8400;;4133;4134;1;13011;22.84;24.34;27,1;BCS1388054;2;16
009645;10.12.2019;20:48:37;Stop          ;04.12.2018;FEY;;LION;49;14500;7200;192;50;29;30;8400;3000;3560;3561;1;13007;33.84;33.44;33,2;BCS1388054;2;16
009645;11.12.2019;08:48:24;Fastcharge    ;04.12.2018;FEY;;LION;49;14500;7200;192;50;29;30;8400;3000;3568;3569;1;13009;26.24;27.74;31,9;BCS1388054;2;16
009645;11.12.2019;13:39:47;Stop          ;04.12.2018;FEY;;LION;49;14500;7200;224;50;94;100;8400;;4161;4162;1;13008;30.84;30.44;32,5;BCS1388054;2;16
009645;11.12.2019;15:46:18;Charge to 10% ;04.12.2018;FEY;;LION;49;14500;7200;224;50;96;100;8400;;4154;4154;1;13009;27.34;28.34;31,4;BCS1388054;2;16
009645;11.12.2019;22:49:04;Stop          ;04.12.2018;FEY;;LION;49;14500;7200;192;51;10;10;8400;3000;3352;3353;1;13007;34.84;34.04;33,6;BCS1388054;2;16
009645;12.12.2019;08:44:52;Normalcharge  ;04.12.2018;FEY;;LION;49;14500;7200;192;51;9;10;8400;3000;3362;3363;1;13009;26.44;27.94;31,9;BCS1388054;2;16
009645;12.12.2019;16:40:06;Stop          ;04.12.2018;FEY;;LION;49;14500;7200;224;51;96;100;8400;;4159;4160;1;13009;29.74;29.94;31,7;BCS1388054;2;16
009645;13.12.2019;10:47:50;Charge to 10% ;04.12.2018;FEY;;LION;49;14500;7200;224;51;96;100;8400;;4148;4149;1;13010;26.54;28.04;32,0;BCS1388054;2;16
009645;13.12.2019;15:42:08;Cycle         ;04.12.2018;FEY;;LION;49;14500;7200;192;52;35;36;8400;3000;3498;3550;1;13580;33.64;38.04;34,6;BCS1388054;2;16
009645;13.12.2019;15:42:08;Stop          ;04.12.2018;FEY;;LION;49;14500;7200;192;52;35;36;8400;3000;3498;3550;1;13580;33.64;38.04;34,6;BCS1388054;2;16
009645;14.12.2019;22:48:51;Stop          ;04.12.2018;FEY;;LION;49;14500;7200;224;53;93;99;8400;;4151;4153;1;13009;26.74;28.04;32,0;BCS1388054;2;16
009645;16.12.2019;07:43:06;Charge to 10% ;04.12.2018;FEY;;LION;49;14500;7200;224;53;94;100;8400;;4146;4147;1;13010;26.14;27.44;31,9;BCS1388054;2;16
009645;16.12.2019;14:37:54;Stop          ;04.12.2018;FEY;;LION;49;14500;7200;192;55;10;10;8400;3000;3364;3366;1;13009;33.34;32.34;32,4;BCS1388054;2;16
009645;16.12.2019;14:44:03;Charge to 90% ;04.12.2018;FEY;;LION;49;14500;7200;192;55;10;10;8400;3000;3365;3367;1;13010;32.94;31.54;31,9;BCS1388054;2;16
009645;16.12.2019;20:51:09;Stop          ;04.12.2018;FEY;;LION;49;14500;7200;192;55;84;90;8400;3000;4054;4056;1;13010;32.34;31.54;31,6;BCS1388054;2;16
009645;17.12.2019;08:37:41;Fastcharge    ;04.12.2018;FEY;;LION;49;14500;7200;192;55;84;90;8400;3000;4046;4047;1;13009;26.34;27.74;31,6;BCS1388054;2;16
009645;17.12.2019;10:30:36;Stop          ;04.12.2018;FEY;;LION;49;14500;7200;224;55;94;100;8400;;4161;4161;1;13009;28.14;29.34;31,5;BCS1388054;2;16
009645;17.12.2019;13:38:22;Charge to 10% ;04.12.2018;FEY;;LION;49;14500;7200;224;55;94;100;8400;;4150;4149;1;13010;26.64;27.84;30,8;BCS1388054;2;16
009645;17.12.2019;20:36:00;Stop          ;04.12.2018;FEY;;LION;49;14500;7200;192;56;10;10;8400;3000;3363;3363;1;13008;34.54;33.54;33,6;BCS1388054;2;16
009645;18.12.2019;08:31:17;Fastcharge    ;04.12.2018;FEY;;LION;49;14500;7200;192;56;10;10;8400;3000;3372;3373;1;13010;26.44;27.84;31,6;BCS1388054;2;16
009645;18.12.2019;14:28:27;Stop          ;04.12.2018;FEY;;LION;49;14500;7200;224;56;94;100;8400;;4161;4161;1;13010;30.84;30.34;32,0;BCS1388054;2;16
009645;19.12.2019;08:23:50;Charge to 60% ;04.12.2018;FEY;;LION;49;14500;7200;224;56;95;100;8400;;4150;4149;1;13009;26.34;27.64;31,5;BCS1388054;2;16
009645;19.12.2019;11:32:11;Stop          ;04.12.2018;FEY;;LION;49;14500;7200;192;56;57;60;8400;3000;3769;3767;1;13008;34.24;34.14;34,0;BCS1388054;2;16
009645;19.12.2019;12:16:37;Cycle         ;04.12.2018;FEY;;LION;49;14500;7200;192;56;57;60;8400;3000;3777;3775;1;13010;31.24;30.34;32,7;BCS1388054;2;16
009645;20.12.2019;17:35:47;Stop          ;04.12.2018;FEY;;LION;49;14500;7200;224;57;93;100;8400;;4152;4153;1;13010;26.74;27.74;31,1;BCS1388054;2;16
009645;06.01.2020;06:34:42;Charge to 60% ;04.12.2018;FEY;;LION;49;14500;7200;224;57;92;99;8400;;4123;4124;1;13010;26.34;27.64;31,9;BCS1388054;2;16
009645;06.01.2020;09:32:11;Stop          ;04.12.2018;FEY;;LION;49;14500;7200;192;57;57;60;8400;3000;3770;3769;1;13010;33.44;33.44;33,2;BCS1388054;2;16
009645;06.01.2020;09:50:30;Fastcharge    ;04.12.2018;FEY;;LION;49;14500;7200;192;57;57;60;8400;3000;3776;3776;1;13011;32.24;31.04;32,7;BCS1388054;2;16
009645;06.01.2020;13:08:34;Stop          ;04.12.2018;FEY;;LION;49;14500;7200;224;57;94;100;8400;;4160;4162;1;13012;30.24;29.94;31,6;BCS1388054;2;16