File: reader/backup_20210330/Batterieverzeichnis/009747.txt
Serialnumber ; Date ; Time ; Action ; Date of Manufacture ; Manufacturer ; Battery Name ; Device-Chemistry ; Specification-Info ; Design-Capacity [mAh] ; Design-Voltage [mV] ; Battery Status ; Cycle Count ; SOC [%] ; Relativ SOC[%] ; Desired Voltage [mV]; Desired Current [mA]; Cell Voltage 1 [mV] ; Cell Voltage 2 [mV] ; Max_Error [%] ; Busvoltage[mV] ; Battery Temperature [°C] ; Charger Temperature [°C] ; Batterysystem ; Case ; PLace
009747;07.12.2020;04:14:36;Cycle         ;04.12.2018;FEY;;LION;49;14500;7200;192;3;96;98;8400;;4148;4148;1;12991;25.84;27.74;30,3;BCS1388054;6;10
009747;08.12.2020;16:20:13;Stop          ;04.12.2018;FEY;;LION;49;14500;7200;192;3;96;98;8400;;4146;4145;1;12991;27.94;29.24;31,9;BCS1388054;6;10
009747;12.01.2021;04:17:40;Charge to 90% ;04.12.2018;FEY;;LION;49;14500;7200;192;3;95;97;8400;;4132;4131;1;13007;23.24;22.84;23,6;BCS1388054;6;12
009747;12.01.2021;05:00:55;Stop          ;04.12.2018;FEY;;LION;49;14500;7200;192;3;88;90;8400;3000;4064;4064;1;13001;27.84;27.04;31,2;BCS1388054;6;12
009747;12.01.2021;05:21:57;Cycle         ;04.12.2018;FEY;;LION;49;14500;7200;192;3;88;90;8400;3000;4067;4067;1;13002;27.34;26.14;30,4;BCS1388054;6;12
009747;13.01.2021;08:31:18;Stop          ;04.12.2018;FEY;;LION;49;14500;7200;224;4;97;100;8400;;4155;4153;1;13000;26.84;26.24;31,1;BCS1388054;6;12
009747;03.03.2021;08:17:17;Normalcharge  ;04.12.2018;FEY;;LION;49;14500;7200;192;4;91;95;8400;3000;4090;4090;1;13010;23.34;23.04;23,5;BCS1388054;2;14
009747;04.03.2021;07:53:46;Stop          ;04.12.2018;FEY;;LION;49;14500;7200;224;4;97;100;8400;;4146;4145;1;13001;26.54;27.84;31,6;BCS1388054;2;14