File: reader/backup_20210330/Batterieverzeichnis/009846.txt
Serialnumber ; Date ; Time ; Action ; Date of Manufacture ; Manufacturer ; Battery Name ; Device-Chemistry ; Specification-Info ; Design-Capacity [mAh] ; Design-Voltage [mV] ; Battery Status ; Cycle Count ; SOC [%] ; Relativ SOC[%] ; Desired Voltage [mV]; Desired Current [mA]; Cell Voltage 1 [mV] ; Cell Voltage 2 [mV] ; Max_Error [%] ; Busvoltage[mV] ; Battery Temperature [°C] ; Charger Temperature [°C] ; Batterysystem ; Case ; PLace
009846;10.12.2019;15:29:01;Charge to 30% ;04.12.2018;FEY;;LION;49;14500;7200;224;52;94;100;8400;;4131;4131;1;13002;22.74;25.24;27,1;BCS1388054;5;7
009846;10.12.2019;20:48:54;Stop          ;04.12.2018;FEY;;LION;49;14500;7200;192;53;29;30;8400;3000;3560;3559;1;13000;34.24;35.14;33,1;BCS1388054;5;7
009846;11.12.2019;08:48:53;Fastcharge    ;04.12.2018;FEY;;LION;49;14500;7200;192;53;29;30;8400;3000;3569;3569;1;13000;26.84;29.14;31,9;BCS1388054;5;7
009846;11.12.2019;13:40:11;Stop          ;04.12.2018;FEY;;LION;49;14500;7200;224;53;95;100;8400;;4163;4162;1;13001;30.84;32.04;32,4;BCS1388054;5;7
009846;11.12.2019;15:46:40;Charge to 10% ;04.12.2018;FEY;;LION;49;14500;7200;224;53;96;100;8400;;4153;4153;1;13000;27.64;29.54;31,4;BCS1388054;5;7
009846;11.12.2019;22:49:07;Stop          ;04.12.2018;FEY;;LION;49;14500;7200;192;54;10;10;8400;3000;3357;3356;1;13000;35.14;35.84;33,5;BCS1388054;5;7
009846;12.12.2019;08:45:10;Normalcharge  ;04.12.2018;FEY;;LION;49;14500;7200;192;54;9;10;8400;3000;3366;3366;1;13000;27.04;29.34;31,7;BCS1388054;5;7
009846;12.12.2019;16:41:20;Stop          ;04.12.2018;FEY;;LION;49;14500;7200;224;54;96;100;8400;;4160;4160;1;13000;29.84;31.14;31,6;BCS1388054;5;7
009846;13.12.2019;10:48:05;Charge to 10% ;04.12.2018;FEY;;LION;49;14500;7200;224;54;96;100;8400;;4148;4148;1;12999;27.04;29.44;32,0;BCS1388054;5;7
009846;13.12.2019;15:40:55;Stop          ;04.12.2018;FEY;;LION;49;14500;7200;192;54;35;37;8400;3000;3505;3554;1;13502;33.24;40.14;34,6;BCS1388054;5;7
009846;13.12.2019;15:41:42;Cycle         ;04.12.2018;FEY;;LION;49;14500;7200;192;54;35;37;8400;3000;3585;3585;1;13001;33.24;37.84;34,5;BCS1388054;5;7
009846;14.12.2019;22:39:35;Stop          ;04.12.2018;FEY;;LION;49;14500;7200;224;56;93;99;8400;;4152;4152;1;13000;27.14;29.24;31,7;BCS1388054;5;7
009846;16.12.2019;07:43:20;Charge to 10% ;04.12.2018;FEY;;LION;49;14500;7200;224;56;94;100;8400;;4146;4146;1;13001;26.84;28.64;31,9;BCS1388054;5;7
009846;16.12.2019;14:34:29;Stop          ;04.12.2018;FEY;;LION;49;14500;7200;192;57;10;10;8400;3000;3363;3363;1;13001;33.04;34.64;32,5;BCS1388054;5;7
009846;16.12.2019;14:44:17;Charge to 90% ;04.12.2018;FEY;;LION;49;14500;7200;192;57;10;10;8400;3000;3367;3367;1;13000;32.34;32.14;31,9;BCS1388054;5;7
009846;16.12.2019;20:48:55;Stop          ;04.12.2018;FEY;;LION;49;14500;7200;192;57;85;90;8400;3000;4058;4059;1;13002;32.84;34.04;31,9;BCS1388054;5;7
009846;17.12.2019;08:37:53;Fastcharge    ;04.12.2018;FEY;;LION;49;14500;7200;192;57;85;90;8400;3000;4046;4047;1;13001;26.94;29.24;31,6;BCS1388054;5;7
009846;17.12.2019;10:33:46;Stop          ;04.12.2018;FEY;;LION;49;14500;7200;224;57;95;100;8400;;4161;4160;1;13001;28.74;30.44;31,1;BCS1388054;5;7
009846;17.12.2019;10:33:46;Stop          ;04.12.2018;FEY;;LION;49;14500;7200;224;57;95;100;8400;;4161;4160;1;13001;28.74;30.44;31,1;BCS1388054;5;7
009846;17.12.2019;13:38:36;Charge to 10% ;04.12.2018;FEY;;LION;49;14500;7200;224;57;95;100;8400;;4150;4150;1;13001;27.24;29.24;30,8;BCS1388054;5;7
009846;17.12.2019;20:33:18;Stop          ;04.12.2018;FEY;;LION;49;14500;7200;192;58;10;10;8400;3000;3363;3363;1;13000;35.14;35.94;34,5;BCS1388054;5;7
009846;18.12.2019;08:31:30;Fastcharge    ;04.12.2018;FEY;;LION;49;14500;7200;192;58;10;10;8400;3000;3374;3374;1;13001;27.04;29.34;31,6;BCS1388054;5;7
009846;18.12.2019;14:29:27;Stop          ;04.12.2018;FEY;;LION;49;14500;7200;224;58;95;100;8400;;4161;4161;1;13001;30.84;31.64;31,7;BCS1388054;5;7
009846;19.12.2019;08:24:02;Charge to 60% ;04.12.2018;FEY;;LION;49;14500;7200;224;58;96;100;8400;;4149;4149;1;13000;26.94;29.24;31,5;BCS1388054;5;7
009846;19.12.2019;11:31:09;Stop          ;04.12.2018;FEY;;LION;49;14500;7200;192;59;58;60;8400;3000;3767;3764;1;13000;34.74;36.14;34,4;BCS1388054;5;7
009846;19.12.2019;12:16:49;Cycle         ;04.12.2018;FEY;;LION;49;14500;7200;192;59;58;60;8400;3000;3777;3774;1;13001;31.14;31.54;32,7;BCS1388054;5;7
009846;20.12.2019;17:27:50;Stop          ;04.12.2018;FEY;;LION;49;14500;7200;224;60;94;100;8400;;4152;4152;1;13001;27.34;29.24;31,0;BCS1388054;5;7
009846;06.01.2020;06:34:55;Charge to 60% ;04.12.2018;FEY;;LION;49;14500;7200;192;60;93;98;8400;;4123;4123;1;13001;27.24;29.44;31,9;BCS1388054;5;7
009846;06.01.2020;09:30:26;Stop          ;04.12.2018;FEY;;LION;49;14500;7200;192;60;57;60;8400;3000;3771;3769;1;13002;33.94;35.74;33,9;BCS1388054;5;7
009846;06.01.2020;09:50:42;Fastcharge    ;04.12.2018;FEY;;LION;49;14500;7200;192;60;57;60;8400;3000;3780;3778;1;13002;32.34;32.14;32,7;BCS1388054;5;7
009846;06.01.2020;13:09:56;Stop          ;04.12.2018;FEY;;LION;49;14500;7200;224;60;95;100;8400;;4160;4160;1;13001;30.34;31.14;31,4;BCS1388054;5;7